LabVIEW Measurement	
Writer_Version	2
Reader_Version	2
Separator	Tab
Decimal_Separator	.
Multi_Headings	No
X_Columns	No
Time_Pref	Absolute
Operator	Embedded Design
Date	2017/02/04
Time	18:27:34.5322807833533542207
***End_of_Header***	
	
Channels	3			
Samples	500	500	500	
Date	2017/02/04	2017/02/04	2017/02/04	
Time	18:27:34.5322807833533542207	18:27:34.5323432818501995853	18:27:34.5324057803470449499	
Y_Unit_Label	Volts	Volts	Volts	
X_Dimension	Time	Time	Time	
X0	0.0000000000000000E+0	0.0000000000000000E+0	0.0000000000000000E+0	
Delta_X	0.001000	0.001000	0.001000	
***End_of_Header***				
X_Value	Zuta 1 (Formula Result)	Zuta 2 (Formula Result)	Zuta 3 (Formula Result)	Comment
	0.806749	NaN	0.038316
	0.806749	NaN	0.038316
	0.806749	NaN	0.038316
	0.806749	NaN	0.277082
	0.806749	NaN	0.038316
	0.758642	NaN	0.038316
	0.806749	NaN	0.038316
	0.806749	NaN	0.038316
	0.758642	NaN	0.038316
	0.758642	NaN	0.038316
	0.806749	NaN	0.038316
	0.806749	NaN	0.038316
	0.758642	NaN	0.038316
	0.806749	NaN	0.038316
	0.806749	NaN	0.038316
	0.806749	NaN	0.038316
	0.806749	NaN	0.038316
	0.806749	NaN	0.277082
	0.806749	NaN	0.277082
	0.806749	NaN	0.038316
	0.806749	NaN	0.038316
	0.806749	NaN	0.038316
	0.806749	NaN	0.038316
	0.806749	NaN	0.038316
	0.806749	NaN	0.038316
	0.806749	NaN	0.038316
	0.806749	NaN	0.038316
	0.806749	NaN	0.038316
	0.806749	NaN	0.038316
	0.806749	NaN	0.038316
	0.806749	NaN	0.038316
	0.758642	NaN	0.277082
	0.806749	NaN	0.038316
	0.806749	NaN	0.038316
	0.806749	NaN	0.038316
	0.806749	NaN	0.038316
	0.758642	NaN	0.038316
	0.758642	NaN	0.038316
	0.758642	NaN	0.277082
	0.806749	NaN	0.277082
	0.806749	NaN	0.038316
	0.806749	NaN	0.038316
	0.806749	NaN	0.038316
	0.806749	NaN	0.038316
	0.806749	NaN	0.038316
	0.806749	NaN	0.038316
	0.806749	NaN	0.038316
	0.806749	NaN	0.038316
	0.806749	NaN	0.038316
	0.806749	NaN	0.038316
	0.806749	NaN	0.038316
	0.758642	NaN	0.038316
	0.806749	NaN	0.038316
	0.806749	NaN	0.038316
	0.758642	NaN	0.038316
	0.806749	NaN	0.038316
	0.806749	NaN	0.277082
	0.806749	NaN	0.038316
	0.806749	NaN	0.038316
	0.806749	NaN	0.038316
	0.806749	NaN	0.038316
	0.806749	NaN	0.038316
	0.806749	NaN	0.038316
	0.806749	NaN	0.038316
	0.806749	NaN	0.038316
	0.806749	NaN	0.038316
	0.806749	NaN	0.277082
	0.806749	NaN	0.038316
	0.806749	NaN	0.038316
	0.806749	NaN	0.038316
	0.806749	NaN	0.038316
	0.806749	NaN	0.038316
	0.806749	NaN	0.038316
	0.806749	NaN	0.038316
	0.806749	NaN	0.038316
	0.758642	NaN	0.038316
	0.758642	NaN	0.038316
	0.758642	NaN	0.038316
	0.806749	NaN	0.277082
	0.758642	NaN	0.038316
	0.806749	NaN	0.038316
	0.806749	NaN	0.038316
	0.806749	NaN	0.038316
	0.806749	NaN	0.038316
	0.806749	NaN	0.038316
	0.806749	NaN	0.038316
	0.806749	NaN	0.038316
	0.806749	NaN	0.038316
	0.758642	NaN	0.038316
	0.806749	NaN	0.038316
	0.806749	NaN	0.038316
	0.806749	NaN	0.038316
	0.806749	NaN	0.038316
	0.758642	NaN	0.277082
	0.806749	NaN	0.277082
	0.806749	NaN	0.038316
	0.806749	NaN	0.277082
	0.806749	NaN	0.038316
	0.758642	NaN	0.038316
	0.806749	NaN	0.038316
	0.806749	NaN	0.038316
	0.806749	NaN	0.277082
	0.806749	NaN	0.038316
	0.806749	NaN	0.038316
	0.806749	NaN	0.277082
	0.806749	NaN	0.038316
	0.806749	NaN	0.277082
	0.806749	NaN	0.038316
	0.806749	NaN	0.038316
	0.806749	NaN	0.038316
	0.806749	NaN	0.277082
	0.806749	NaN	0.038316
	0.806749	NaN	0.038316
	0.806749	NaN	0.038316
	0.806749	NaN	0.038316
	0.806749	NaN	0.277082
	0.806749	NaN	0.038316
	0.806749	NaN	0.038316
	0.806749	NaN	0.038316
	0.806749	NaN	0.277082
	0.806749	NaN	0.038316
	0.806749	NaN	0.038316
	0.758642	NaN	0.038316
	0.758642	NaN	0.038316
	0.806749	NaN	0.038316
	0.806749	NaN	0.038316
	0.758642	NaN	0.038316
	0.806749	NaN	0.038316
	0.806749	NaN	0.038316
	0.806749	NaN	0.277082
	0.806749	NaN	0.038316
	0.806749	NaN	0.038316
	0.806749	NaN	0.038316
	0.806749	NaN	0.038316
	0.806749	NaN	0.277082
	0.852147	NaN	0.038316
	0.806749	NaN	0.038316
	0.806749	NaN	0.038316
	0.806749	NaN	0.038316
	0.806749	NaN	0.038316
	0.806749	NaN	0.038316
	0.806749	NaN	0.038316
	0.806749	NaN	0.038316
	0.758642	NaN	0.038316
	0.806749	NaN	0.038316
	0.806749	NaN	0.038316
	0.806749	NaN	0.038316
	0.806749	NaN	0.038316
	0.806749	NaN	0.038316
	0.758642	NaN	0.038316
	0.806749	NaN	0.038316
	0.758642	NaN	0.277082
	0.806749	NaN	0.038316
	0.806749	NaN	0.038316
	0.806749	NaN	0.038316
	0.806749	NaN	0.038316
	0.806749	NaN	0.277082
	0.806749	NaN	0.038316
	0.806749	NaN	0.038316
	0.806749	NaN	0.038316
	0.758642	NaN	0.038316
	0.806749	NaN	0.038316
	0.806749	NaN	0.038316
	0.806749	NaN	0.038316
	0.806749	NaN	0.038316
	0.806749	NaN	0.038316
	0.806749	NaN	0.038316
	0.806749	NaN	0.038316
	0.806749	NaN	0.038316
	0.806749	NaN	0.038316
	0.806749	NaN	0.038316
	0.806749	NaN	0.038316
	0.806749	NaN	0.277082
	0.806749	NaN	0.038316
	0.806749	NaN	0.038316
	0.806749	NaN	0.038316
	0.758642	NaN	0.277082
	0.806749	NaN	0.277082
	0.806749	NaN	0.038316
	0.806749	NaN	0.038316
	0.806749	NaN	0.038316
	0.806749	NaN	0.038316
	0.806749	NaN	0.038316
	0.806749	NaN	0.038316
	0.806749	NaN	0.038316
	0.806749	NaN	0.038316
	0.806749	NaN	0.038316
	0.806749	NaN	0.038316
	0.806749	NaN	0.038316
	0.806749	NaN	0.038316
	0.806749	NaN	0.038316
	0.806749	NaN	0.038316
	0.806749	NaN	0.038316
	0.806749	NaN	0.038316
	0.806749	NaN	0.277082
	0.806749	NaN	0.038316
	0.806749	NaN	0.277082
	0.806749	NaN	0.038316
	0.806749	NaN	0.038316
	0.806749	NaN	0.038316
	0.806749	NaN	0.038316
	0.806749	NaN	0.038316
	0.758642	NaN	0.038316
	0.806749	NaN	0.038316
	0.806749	NaN	NaN
	0.806749	NaN	0.038316
	0.806749	NaN	0.038316
	0.758642	NaN	0.038316
	0.806749	NaN	0.277082
	0.806749	NaN	0.277082
	0.806749	NaN	0.038316
	0.806749	NaN	0.038316
	0.806749	NaN	0.038316
	0.806749	NaN	0.038316
	0.806749	NaN	0.038316
	0.806749	NaN	0.038316
	0.806749	NaN	0.038316
	0.806749	NaN	0.038316
	0.806749	NaN	0.038316
	0.806749	NaN	0.038316
	0.806749	NaN	0.277082
	0.806749	NaN	0.038316
	0.806749	NaN	0.038316
	0.806749	NaN	0.038316
	0.806749	NaN	0.038316
	0.806749	NaN	0.038316
	0.806749	NaN	0.038316
	0.806749	NaN	0.038316
	0.806749	NaN	0.038316
	0.806749	NaN	0.277082
	0.806749	NaN	0.038316
	0.758642	NaN	0.277082
	0.806749	NaN	0.038316
	0.806749	NaN	0.038316
	0.806749	NaN	0.038316
	0.806749	NaN	0.038316
	0.806749	NaN	0.038316
	0.806749	NaN	0.038316
	0.806749	NaN	0.038316
	0.806749	NaN	0.038316
	0.806749	NaN	0.038316
	0.806749	NaN	0.038316
	0.806749	NaN	0.038316
	0.806749	NaN	0.038316
	0.806749	NaN	0.038316
	0.806749	NaN	0.038316
	0.806749	NaN	0.038316
	0.806749	NaN	0.038316
	0.806749	NaN	0.277082
	0.806749	NaN	0.038316
	0.806749	NaN	0.038316
	0.806749	NaN	0.038316
	0.806749	NaN	0.277082
	0.806749	NaN	0.038316
	0.806749	NaN	0.277082
	0.806749	NaN	0.038316
	0.806749	NaN	0.038316
	0.758642	NaN	0.038316
	0.806749	NaN	0.038316
	0.806749	NaN	0.038316
	0.806749	NaN	0.038316
	0.806749	NaN	0.038316
	0.806749	NaN	0.038316
	0.806749	NaN	0.038316
	0.806749	NaN	0.038316
	0.806749	NaN	0.038316
	0.806749	NaN	0.038316
	0.806749	NaN	0.038316
	0.806749	NaN	0.038316
	0.806749	NaN	0.038316
	0.806749	NaN	0.038316
	0.806749	NaN	0.038316
	0.806749	NaN	0.038316
	0.806749	NaN	0.038316
	0.806749	NaN	0.038316
	0.806749	NaN	0.038316
	0.806749	NaN	0.038316
	0.806749	NaN	0.038316
	0.806749	NaN	0.038316
	0.806749	NaN	0.038316
	0.806749	NaN	0.038316
	0.806749	NaN	0.038316
	0.806749	NaN	0.038316
	0.806749	NaN	0.038316
	0.806749	NaN	0.277082
	0.806749	NaN	0.038316
	0.806749	NaN	0.277082
	0.806749	NaN	0.038316
	0.806749	NaN	0.277082
	0.806749	NaN	0.038316
	0.806749	NaN	0.038316
	0.806749	NaN	0.038316
	0.806749	NaN	0.038316
	0.806749	NaN	0.038316
	0.758642	NaN	0.038316
	0.806749	NaN	0.038316
	0.806749	NaN	0.038316
	0.806749	NaN	0.038316
	0.806749	NaN	0.038316
	0.806749	NaN	0.038316
	0.806749	NaN	0.038316
	0.806749	NaN	0.038316
	0.806749	NaN	0.038316
	0.806749	NaN	0.038316
	0.806749	NaN	0.038316
	0.806749	NaN	0.038316
	0.806749	NaN	0.038316
	0.806749	NaN	0.038316
	0.806749	NaN	0.038316
	0.758642	NaN	0.038316
	0.806749	NaN	0.038316
	0.806749	NaN	0.038316
	0.806749	NaN	0.038316
	0.806749	NaN	0.038316
	0.806749	NaN	0.038316
	0.806749	NaN	0.038316
	0.806749	NaN	0.038316
	0.806749	NaN	0.038316
	0.806749	NaN	0.277082
	0.806749	NaN	0.038316
	0.806749	NaN	0.277082
	0.806749	NaN	0.038316
	0.806749	NaN	0.038316
	0.758642	NaN	0.038316
	0.806749	NaN	0.038316
	0.806749	NaN	0.038316
	0.806749	NaN	0.038316
	0.806749	NaN	0.038316
	0.806749	NaN	0.038316
	0.806749	NaN	0.038316
	0.806749	NaN	0.038316
	0.806749	NaN	0.038316
	0.806749	NaN	0.038316
	0.806749	NaN	0.277082
	0.806749	NaN	0.038316
	0.806749	NaN	0.038316
	0.806749	NaN	0.038316
	0.806749	NaN	0.038316
	0.806749	NaN	0.277082
	0.806749	NaN	0.038316
	0.806749	NaN	0.277082
	0.806749	NaN	0.038316
	0.806749	NaN	0.038316
	0.806749	NaN	0.277082
	0.806749	NaN	0.038316
	0.806749	NaN	0.038316
	0.806749	NaN	0.277082
	0.806749	NaN	0.038316
	0.806749	NaN	0.038316
	0.806749	NaN	0.038316
	0.806749	NaN	0.038316
	0.806749	NaN	0.038316
	0.806749	NaN	0.277082
	0.806749	NaN	0.038316
	0.806749	NaN	0.038316
	0.806749	NaN	0.038316
	0.806749	NaN	0.038316
	0.806749	NaN	0.038316
	0.806749	NaN	0.038316
	0.806749	NaN	0.038316
	0.806749	NaN	0.038316
	0.806749	NaN	0.038316
	0.806749	NaN	0.038316
	0.806749	NaN	0.038316
	0.806749	NaN	0.038316
	0.806749	NaN	0.038316
	0.806749	NaN	0.038316
	0.806749	NaN	0.038316
	0.806749	NaN	0.038316
	0.806749	NaN	0.038316
	0.806749	NaN	0.038316
	0.806749	NaN	0.038316
	0.806749	NaN	0.038316
	0.758642	NaN	0.038316
	0.758642	NaN	NaN
	0.806749	NaN	0.038316
	0.806749	NaN	0.038316
	0.806749	NaN	0.038316
	0.806749	NaN	0.038316
	0.806749	NaN	0.038316
	0.806749	NaN	0.038316
	0.806749	NaN	0.038316
	0.806749	NaN	0.038316
	0.806749	NaN	0.277082
	0.806749	NaN	0.038316
	0.806749	NaN	0.038316
	0.806749	NaN	0.038316
	0.806749	NaN	0.038316
	0.806749	NaN	0.038316
	0.806749	NaN	0.038316
	0.806749	NaN	0.277082
	0.758642	NaN	0.277082
	0.806749	NaN	0.038316
	0.806749	NaN	0.038316
	0.806749	NaN	0.038316
	0.806749	NaN	0.038316
	0.806749	NaN	0.038316
	0.806749	NaN	0.038316
	0.806749	NaN	0.038316
	0.806749	NaN	0.038316
	0.806749	NaN	0.038316
	0.806749	NaN	0.038316
	0.806749	NaN	0.038316
	0.806749	NaN	0.038316
	0.806749	NaN	0.038316
	0.806749	NaN	0.038316
	0.806749	NaN	0.038316
	0.806749	NaN	0.038316
	0.806749	NaN	0.038316
	0.806749	NaN	0.277082
	0.806749	NaN	0.038316
	0.806749	NaN	0.038316
	0.806749	NaN	0.038316
	0.806749	NaN	0.038316
	0.806749	NaN	0.038316
	0.806749	NaN	0.277082
	0.806749	NaN	0.038316
	0.806749	NaN	0.038316
	0.806749	NaN	0.038316
	0.806749	NaN	NaN
	0.806749	NaN	0.038316
	0.806749	NaN	0.038316
	0.806749	NaN	0.038316
	0.806749	NaN	0.038316
	0.806749	NaN	0.277082
	0.806749	NaN	0.038316
	0.806749	NaN	0.038316
	0.806749	NaN	0.038316
	0.806749	NaN	0.038316
	0.806749	NaN	0.038316
	0.758642	NaN	0.038316
	0.806749	NaN	0.038316
	0.806749	NaN	0.038316
	0.806749	NaN	0.038316
	0.758642	NaN	0.038316
	0.806749	NaN	0.038316
	0.758642	NaN	0.038316
	0.758642	NaN	0.038316
	0.806749	NaN	0.038316
	0.806749	NaN	0.038316
	0.806749	NaN	0.038316
	0.806749	NaN	0.038316
	0.806749	NaN	0.038316
	0.806749	NaN	0.038316
	0.806749	NaN	0.038316
	0.806749	NaN	0.038316
	0.806749	NaN	0.038316
	0.758642	NaN	0.038316
	0.806749	NaN	0.038316
	0.806749	NaN	0.038316
	0.806749	NaN	0.038316
	0.806749	NaN	0.038316
	0.806749	NaN	0.277082
	0.806749	NaN	0.038316
	0.806749	NaN	0.038316
	0.806749	NaN	0.038316
	0.806749	NaN	0.277082
	0.758642	NaN	0.038316
	0.806749	NaN	0.038316
	0.806749	NaN	0.038316
	0.806749	NaN	0.038316
	0.806749	NaN	0.038316
	0.806749	NaN	0.038316
	0.758642	NaN	0.038316
	0.806749	NaN	0.038316
	0.806749	NaN	0.038316
	0.806749	NaN	0.038316
	0.806749	NaN	0.038316
	0.758642	NaN	0.038316
	0.806749	NaN	0.277082
	0.806749	NaN	0.038316
	0.806749	NaN	0.038316
	0.758642	NaN	0.038316
	0.758642	NaN	0.038316
	0.758642	NaN	0.038316
	0.806749	NaN	0.038316
	0.806749	NaN	0.038316
	0.806749	NaN	0.038316
	0.806749	NaN	0.277082
	0.758642	NaN	0.277082
	0.806749	NaN	0.038316
	0.806749	NaN	0.277082
	0.806749	NaN	0.277082
	0.806749	NaN	0.038316
	0.758640	NaN	0.277082
	0.806749	NaN	0.038316
	0.806749	NaN	0.277082
	0.806749	NaN	0.038316
	0.806749	NaN	0.038316
	0.806749	NaN	0.038316
	0.806749	NaN	0.038316
	0.806749	NaN	0.038316
	0.806749	NaN	0.277082
	0.806749	NaN	0.038316
	0.806749	NaN	0.038316
	0.806749	NaN	0.038316
	0.806749	NaN	0.038316
	0.806749	NaN	0.038316
	0.806749	NaN	0.038316
	0.806749	NaN	0.038316
	0.806749	NaN	0.038316
	0.806749	NaN	0.038316
	0.806749	NaN	0.038316
	0.806749	NaN	0.038316
	0.806749	NaN	0.277082
	0.806749	NaN	0.277082
	0.806749	NaN	0.038316
	0.806749	NaN	0.038316
	0.806749	NaN	0.038316
	0.806749	NaN	0.038316
	0.806749	NaN	0.038316
	0.806749	NaN	0.038316
	0.806749	NaN	0.038316
	0.806749	NaN	0.038316
	0.806749	NaN	0.277082
	0.806749	NaN	0.038316
	0.806749	NaN	0.038316
	0.806749	NaN	0.038316
	0.806749	NaN	0.038316
	0.806749	NaN	0.038316
	0.806749	NaN	0.038316
	0.806749	NaN	0.038316
	0.806749	NaN	0.038316
	0.806749	NaN	0.038316
	0.806749	NaN	0.038316
	0.806749	NaN	0.038316
	0.806749	NaN	0.038316
	0.806749	NaN	0.038316
	0.806749	NaN	0.038316
	0.806749	NaN	0.038316
	0.806749	NaN	0.038316
	0.806749	NaN	0.038316
	0.806749	NaN	0.038316
	0.806749	NaN	0.038316
	0.806749	NaN	0.038316
	0.758642	NaN	0.038316
	0.806749	NaN	0.038316
	0.806749	NaN	0.038316
	0.806749	NaN	0.038316
	0.806749	NaN	0.038316
	0.806749	NaN	0.038316
	0.758642	NaN	0.038316
	0.806749	NaN	0.277082
	0.806749	NaN	0.038316
	0.806749	NaN	0.038316
	0.806749	NaN	0.277082
	0.806749	NaN	0.277082
	0.806749	NaN	0.038316
	0.806749	NaN	0.277082
	0.758640	NaN	0.038316
	0.806749	NaN	0.038316
	0.806749	NaN	0.038316
	0.758640	NaN	0.038316
	0.806749	NaN	0.038316
	0.806749	NaN	0.277082
	0.806749	NaN	0.038316
	0.806749	NaN	0.038316
	0.806749	NaN	0.038316
	0.758642	NaN	0.038316
	0.806749	NaN	0.038316
	0.806749	NaN	0.038316
	0.806749	NaN	0.038316
	0.806749	NaN	0.277082
	0.806749	NaN	0.038316
	0.806749	NaN	0.038316
	0.806749	NaN	0.038316
	0.806749	NaN	0.277082
	0.806749	NaN	0.038316
	0.758642	NaN	0.038316
	0.806749	NaN	0.277082
	0.806749	NaN	0.038316
	0.806749	NaN	0.038316
	0.806749	NaN	0.038316
	0.806749	NaN	0.277082
	0.806749	NaN	0.038316
	0.758642	NaN	0.038316
	0.806749	NaN	0.038316
	0.806749	NaN	0.038316
	0.806749	NaN	0.038316
	0.806749	NaN	0.038316
	0.806749	NaN	0.038316
	0.806749	NaN	0.038316
	0.806749	NaN	0.038316
	0.806749	NaN	0.038316
	0.758640	NaN	0.038316
	0.806749	NaN	0.038316
	0.806749	NaN	0.038316
	0.806749	NaN	0.038316
	0.806749	NaN	0.038316
	0.806749	NaN	0.038316
	0.806749	NaN	0.038316
	0.806749	NaN	0.038316
	0.806749	NaN	0.038316
	0.806749	NaN	0.038316
	0.806749	NaN	0.038316
	0.806749	NaN	0.038316
	0.806749	NaN	0.038316
	0.758642	NaN	0.038316
	0.806749	NaN	0.038316
	0.806749	NaN	0.038316
	0.806749	NaN	0.038316
	0.806749	NaN	0.038316
	0.806749	NaN	0.038316
	0.806749	NaN	0.038316
	0.806749	NaN	0.038316
	0.806749	NaN	0.038316
	0.758642	NaN	0.038316
	0.806749	NaN	0.038316
	0.806749	NaN	0.038316
	0.806749	NaN	0.038316
	0.806749	NaN	0.038316
	0.806749	NaN	0.038316
	0.806749	NaN	0.038316
	0.806749	NaN	0.038316
	0.806749	NaN	0.038316
	0.806749	NaN	0.038316
	0.806749	NaN	0.038316
	0.806749	NaN	0.038316
	0.806749	NaN	0.038316
	0.806749	NaN	NaN
	0.806749	NaN	0.038316
	0.806749	NaN	0.038316
	0.806749	NaN	0.038316
	0.806749	NaN	0.038316
	0.806749	NaN	0.038316
	0.806749	NaN	0.038316
	0.806749	NaN	0.277082
	0.806749	NaN	0.038316
	0.806749	NaN	0.038316
	0.806749	NaN	0.038316
	0.806749	NaN	0.038316
	0.806749	NaN	0.277082
	0.806749	NaN	0.038316
	0.806749	NaN	0.038316
	0.806749	NaN	0.038316
	0.806749	NaN	0.038316
	0.806749	NaN	0.038316
	0.806749	NaN	0.038316
	0.758642	NaN	0.038316
	0.806749	NaN	0.277082
	0.806749	NaN	0.038316
	0.806749	NaN	0.038316
	0.806749	NaN	0.277082
	0.806749	NaN	0.038316
	0.806749	NaN	0.038316
	0.758642	NaN	0.277082
	0.806749	NaN	0.038316
	0.806749	NaN	0.038316
	0.806749	NaN	0.038316
	0.758642	NaN	0.038316
	0.806749	NaN	0.038316
	0.806749	NaN	0.038316
	0.806749	NaN	0.038316
	0.806749	NaN	0.038316
	0.806749	NaN	0.277082
	0.806749	NaN	0.038316
	0.806749	NaN	0.038316
	0.806749	NaN	0.038316
	0.758642	NaN	0.038316
	0.806749	NaN	0.038316
	0.806749	NaN	0.038316
	0.806749	NaN	0.038316
	0.758642	NaN	0.277082
	0.758642	NaN	0.038316
	0.806749	NaN	0.038316
	0.806749	NaN	0.038316
	0.806749	NaN	0.038316
	0.806749	NaN	0.038316
	0.806749	NaN	0.038316
	0.806749	NaN	0.038316
	0.806749	NaN	0.038316
	0.806749	NaN	0.038316
	0.806749	NaN	0.038316
	0.806749	NaN	0.038316
	0.806749	NaN	0.038316
	0.806749	NaN	0.038316
	0.806749	NaN	0.038316
	0.806749	NaN	0.038316
	0.806749	NaN	0.038316
	0.806749	NaN	0.038316
	0.806749	NaN	0.038316
	0.806749	NaN	0.038316
	0.806749	NaN	0.038316
	0.806749	NaN	0.038316
	0.806749	NaN	0.277082
	0.758640	NaN	0.038316
	0.806749	NaN	0.038316
	0.806749	NaN	0.038316
	0.806749	NaN	0.038316
	0.806749	NaN	0.038316
	0.806749	NaN	0.038316
	0.806749	NaN	0.038316
	0.806749	NaN	0.038316
	0.806749	NaN	0.038316
	0.806749	NaN	0.038316
	0.806749	NaN	0.038316
	0.806749	NaN	0.038316
	0.806749	NaN	0.038316
	0.806749	NaN	0.038316
	0.806749	NaN	0.038316
	0.806749	NaN	0.038316
	0.806749	NaN	0.038316
	0.806749	NaN	0.038316
	0.806749	NaN	0.038316
	0.806749	NaN	0.038316
	0.758642	NaN	0.038316
	0.806749	NaN	0.038316
	0.806749	NaN	0.038316
	0.806749	NaN	0.038316
	0.806749	NaN	0.038316
	0.758642	NaN	0.038316
	0.806749	NaN	0.038316
	0.806749	NaN	0.038316
	0.806749	NaN	0.277082
	0.806749	NaN	0.277082
	0.806749	NaN	0.038316
	0.758642	NaN	0.038316
	0.806749	NaN	0.038316
	0.806749	NaN	0.038316
	0.758642	NaN	0.038316
	0.806749	NaN	0.038316
	0.806749	NaN	0.038316
	0.806749	NaN	0.038316
	0.806749	NaN	0.038316
	0.806749	NaN	0.038316
	0.758642	NaN	0.038316
	0.806749	NaN	0.038316
	0.806749	NaN	0.038316
	0.806749	NaN	0.038316
	0.806749	NaN	0.038316
	0.806749	NaN	0.038316
	0.806749	NaN	0.038316
	0.806749	NaN	0.038316
	0.806749	NaN	0.038316
	0.806749	NaN	0.038316
	0.806749	NaN	0.038316
	0.806749	NaN	0.038316
	0.806749	NaN	0.038316
	0.806749	NaN	0.038316
	0.806749	NaN	0.038316
	0.806749	NaN	0.038316
	0.806749	NaN	0.038316
	0.806749	NaN	0.038316
	0.806749	NaN	0.038316
	0.806749	NaN	0.038316
	0.806749	NaN	0.038316
	0.806749	NaN	0.038316
	0.806749	NaN	0.038316
	0.806749	NaN	0.038316
	0.806749	NaN	0.038316
	0.758642	NaN	0.038316
	0.758642	NaN	0.038316
	0.758642	NaN	0.038316
	0.806749	NaN	0.038316
	0.806749	NaN	0.038316
	0.806749	NaN	0.038316
	0.806749	NaN	0.038316
	0.806749	NaN	0.277082
	0.806749	NaN	0.038316
	0.806749	NaN	0.038316
	0.806749	NaN	0.038316
	0.806749	NaN	0.277082
	0.806749	NaN	0.038316
	0.806749	NaN	0.038316
	0.806749	NaN	0.038316
	0.806749	NaN	0.038316
	0.806749	NaN	0.038316
	0.806749	NaN	0.038316
	0.806749	NaN	0.038316
	0.806749	NaN	0.038316
	0.806749	NaN	0.038316
	0.806749	NaN	0.038316
	0.806749	NaN	0.277082
	0.806749	NaN	0.038316
	0.806749	NaN	0.038316
	0.806749	NaN	0.038316
	0.806749	NaN	0.038316
	0.806749	NaN	0.038316
	0.806749	NaN	0.038316
	0.806749	NaN	0.038316
	0.806749	NaN	0.038316
	0.758642	NaN	0.038316
	0.806749	NaN	0.038316
	0.758642	NaN	0.038316
	0.806749	NaN	0.038316
	0.758642	NaN	0.038316
	0.806749	NaN	0.038316
	0.758642	NaN	0.038316
	0.806749	NaN	0.038316
	0.806749	NaN	0.038316
	0.806749	NaN	0.038316
	0.806749	NaN	0.038316
	0.806749	NaN	0.038316
	0.758642	NaN	0.038316
	0.806749	NaN	0.038316
	0.806749	NaN	0.038316
	0.806749	NaN	0.038316
	0.806749	NaN	0.038316
	0.806749	NaN	0.038316
	0.806749	NaN	0.038316
	0.806749	NaN	0.038316
	0.806749	NaN	0.277082
	0.806749	NaN	0.038316
	0.806749	NaN	0.277082
	0.806749	NaN	0.038316
	0.806749	NaN	0.038316
	0.806749	NaN	0.277082
	0.806749	NaN	0.038316
	0.806749	NaN	0.277082
	0.806749	NaN	0.038316
	0.806749	NaN	0.038316
	0.806749	NaN	0.038316
	0.758642	NaN	0.038316
	0.806749	NaN	0.038316
	0.806749	NaN	0.038316
	0.806749	NaN	0.038316
	0.806749	NaN	0.277082
	0.806749	NaN	0.038316
	0.806749	NaN	0.038316
	0.806749	NaN	0.038316
	0.806749	NaN	0.277082
	0.806749	NaN	0.038316
	0.806749	NaN	0.038316
	0.806749	NaN	0.038316
	0.806749	NaN	0.038316
	0.806749	NaN	0.038316
	0.758642	NaN	0.277082
	0.758642	NaN	0.277082
	0.758642	NaN	0.038316
	0.806749	NaN	0.038316
	0.806749	NaN	0.038316
	0.806749	NaN	0.038316
	0.806749	NaN	0.038316
	0.758640	NaN	0.038316
	0.806749	NaN	0.038316
	0.806749	NaN	0.038316
	0.806749	NaN	0.038316
	0.806749	NaN	0.038316
	0.806749	NaN	0.038316
	0.806749	NaN	0.038316
	0.806749	NaN	0.038316
	0.806749	NaN	0.038316
	0.806749	NaN	0.038316
	0.806749	NaN	0.038316
	0.806749	NaN	0.277082
	0.806749	NaN	0.277082
	0.806749	NaN	0.038316
	0.806749	NaN	0.038316
	0.758642	NaN	0.038316
	0.806749	NaN	0.038316
	0.806749	NaN	0.038316
	0.758642	NaN	0.038316
	0.806749	NaN	0.038316
	0.758642	NaN	0.277082
	0.806749	NaN	0.277082
	0.806749	NaN	0.038316
	0.758642	NaN	0.038316
	0.806749	NaN	0.038316
	0.806749	NaN	0.038316
	0.806749	NaN	0.038316
	0.758642	NaN	0.277082
	0.758642	NaN	0.277082
	0.758642	NaN	0.277082
	0.758642	NaN	0.277082
	0.707268	NaN	0.038316
	0.707268	NaN	0.038316
	0.651858	NaN	0.277082
	0.651858	NaN	0.277084
	0.591276	NaN	0.277082
	0.651854	NaN	0.277084
	0.591274	NaN	0.038316
	0.651852	NaN	NaN
	0.591269	NaN	NaN
	0.651848	NaN	NaN
	0.591267	NaN	NaN
	0.651848	NaN	NaN
	0.651848	NaN	NaN
	0.651846	NaN	NaN
	0.591267	NaN	NaN
	0.523724	NaN	NaN
	0.523724	NaN	NaN
	0.523722	NaN	NaN
	0.446066	NaN	NaN
	0.351661	NaN	NaN
	0.351661	NaN	NaN
	0.351658	NaN	NaN
	0.351658	NaN	NaN
	0.219895	NaN	NaN
	NaN	NaN	NaN
	NaN	NaN	NaN
	NaN	NaN	NaN
	NaN	NaN	NaN
	NaN	NaN	NaN
	NaN	NaN	0.038272
	NaN	NaN	0.476849
	NaN	NaN	0.550175
	NaN	NaN	0.673280
	NaN	NaN	0.727058
	NaN	NaN	0.777124
	NaN	NaN	0.824154
	NaN	NaN	NaN
	NaN	NaN	NaN
	NaN	NaN	0.389970
	NaN	NaN	0.868639
	NaN	NaN	1.063517
	NaN	NaN	1.164899
	NaN	NaN	1.098351
	NaN	NaN	1.027502
	NaN	NaN	0.910955
	NaN	NaN	0.868638
	NaN	NaN	0.727058
	NaN	NaN	0.727057
	NaN	NaN	0.868637
	NaN	NaN	0.990177
	NaN	NaN	1.063516
	NaN	NaN	1.132114
	NaN	NaN	1.098351
	NaN	NaN	0.990179
	NaN	NaN	0.910955
	NaN	NaN	0.868638
	NaN	NaN	0.868638
	NaN	NaN	0.910955
	NaN	NaN	0.951392
	NaN	NaN	1.027503
	NaN	NaN	1.132115
	NaN	NaN	1.098352
	NaN	NaN	1.098352
	NaN	NaN	1.063518
	0.446031	NaN	0.990180
	0.591241	NaN	0.868640
	0.707241	NaN	0.824154
	0.806730	NaN	0.777125
	0.895230	NaN	0.777125
	0.975735	NaN	0.777126
	0.975739	NaN	0.673285
	1.050090	NaN	0.673285
	1.085358	NaN	0.673286
	1.119515	NaN	0.614823
	1.184878	NaN	0.389984
	1.246819	NaN	0.389984
	1.276663	0.387544	0.038403
	1.334349	0.548461	NaN
	1.362278	0.613286	NaN
	1.416481	0.725767	NaN
	1.468686	0.775917	NaN
	1.494104	0.909931	NaN
	1.519097	0.867564	NaN
	1.567889	0.867564	NaN
	1.591724	0.909932	NaN
	1.615207	0.867567	NaN
	1.615208	0.909935	NaN
	1.615208	0.950416	0.038446
	1.661178	1.026601	0.277102
	1.661179	1.062648	0.389990
	1.661179	1.097511	0.476863
	1.661179	1.131299	0.476863
	1.683693	1.164108	0.614827
	1.705911	1.131300	0.550186
	1.683694	1.131300	0.550186
	1.683694	1.131300	0.550187
	1.683694	1.131300	0.476863
	1.683694	1.131300	0.476864
	1.683694	1.097511	0.476864
	1.683694	1.131300	0.550187
	1.683694	1.062649	0.614827
	1.683694	1.026603	0.673290
	1.683694	1.026603	0.673290
	1.638356	0.989244	0.673289
	1.661179	0.950419	0.673289
	1.615209	0.909938	0.673289
	1.591726	0.909938	0.673288
	1.591726	0.823025	0.673288
	1.567891	0.823025	0.727065
	1.567891	0.775926	0.777130
	1.567891	0.775926	0.777129
	1.519101	0.725776	0.777129
	1.543688	0.725776	0.824158
	1.519101	0.671894	0.777128
	1.494108	0.548475	0.777128
	1.494108	0.548475	0.824157
	1.442824	0.474885	0.868643
	1.442824	0.474882	0.910960
	1.416487	0.387561	0.910960
	1.389649	0.273667	0.990183
	1.334357	NaN	1.063520
	1.334357	NaN	1.132117
	1.334357	NaN	1.164901
	1.305834	NaN	1.227847
	1.276673	NaN	1.227847
	1.246829	NaN	1.227847
	1.246829	NaN	1.258139
	1.184891	NaN	1.227846
	1.152674	NaN	1.227846
	1.152674	NaN	1.227846
	1.119530	NaN	1.196787
	1.085375	NaN	1.196787
	1.050109	NaN	1.227846
	0.975763	NaN	1.258138
	0.975763	NaN	1.258138
	0.936378	NaN	1.258138
	0.852166	NaN	1.227845
	0.806770	NaN	1.227845
	0.758663	NaN	1.227845
	0.707290	NaN	1.227845
	0.707290	NaN	1.196786
	0.651882	NaN	1.196786
	0.591304	NaN	1.164899
	0.523766	NaN	1.196786
	0.446122	NaN	1.196786
	0.351731	NaN	1.164899
	0.351731	NaN	1.164899
	0.220013	NaN	1.196786
	0.220013	NaN	1.196785
	0.220013	NaN	1.196785
	NaN	NaN	1.196785
	NaN	NaN	1.196785
	NaN	NaN	1.164899
	NaN	NaN	1.164899
	NaN	NaN	1.164899
	NaN	NaN	1.164899
	NaN	NaN	1.164899
	NaN	NaN	1.132114
	NaN	NaN	1.098351
	NaN	NaN	1.063517
	NaN	NaN	1.063517
	NaN	NaN	1.063517
	NaN	NaN	1.027502
	NaN	NaN	0.990179
	NaN	NaN	0.990179
	NaN	NaN	0.910956
	NaN	NaN	0.868639
	NaN	NaN	0.868639
	NaN	NaN	0.868639
	NaN	NaN	0.868639
	NaN	NaN	0.868639
	NaN	NaN	0.824152
	0.219989	NaN	0.824153
	0.219989	NaN	0.824153
	0.219989	NaN	0.777124
	0.351713	NaN	0.824154
	0.446104	NaN	0.727059
	0.523754	NaN	0.727059
	0.591291	NaN	0.673281
	0.651868	NaN	0.614818
	0.651868	NaN	0.614818
	0.758649	NaN	0.614819
	0.758647	NaN	0.614819
	0.758647	NaN	0.550178
	0.806754	NaN	0.476853
	0.852150	NaN	0.389977
	0.895248	NaN	0.277084
	0.895246	NaN	0.038316
	0.936361	NaN	NaN
	0.936361	NaN	NaN
	0.975746	0.273667	NaN
	1.013602	0.273667	NaN
	0.975746	NaN	NaN
	1.050093	0.387561	NaN
	1.013601	0.387561	NaN
	1.085358	0.474882	NaN
	1.050092	0.474882	NaN
	1.085357	0.548471	NaN
	1.085357	0.548473	NaN
	1.119512	0.613296	NaN
	1.119512	0.671892	NaN
	1.152655	0.671892	NaN
	1.119511	0.671892	NaN
	1.152654	0.671892	NaN
	1.184870	0.775922	NaN
	1.184870	0.775922	NaN
	1.152653	0.775922	NaN
	1.184869	0.775922	NaN
	1.216233	0.775922	NaN
	1.216233	0.823022	NaN
	1.216232	0.823022	NaN
	1.216232	0.823022	NaN
	1.246807	0.867568	NaN
	1.246807	0.823022	NaN
	1.246805	0.867568	NaN
	1.246805	0.867568	NaN
	1.276648	0.867568	NaN
	1.246804	0.909936	NaN
	1.246804	0.909936	NaN
	1.246804	0.909936	NaN
	1.246803	0.909936	NaN
	1.246803	0.909936	NaN
	1.276646	0.909936	NaN
	1.246802	0.909936	NaN
	1.246802	0.909936	NaN
	1.246801	0.909936	NaN
	1.246801	0.909936	NaN
	1.246801	0.867568	NaN
	1.276644	0.909936	NaN
	1.246800	0.909936	NaN
	1.246800	0.909936	NaN
	1.246800	0.950416	NaN
	1.216224	0.950416	NaN
	1.184860	0.950416	NaN
	1.184860	0.950416	NaN
	1.184860	0.950416	NaN
	1.152642	0.909935	NaN
	1.152642	0.909935	NaN
	1.152642	0.909935	NaN
	1.119497	0.909935	NaN
	1.119497	0.909935	NaN
	1.119497	0.867567	NaN
	1.085340	0.867567	NaN
	1.085340	0.823022	NaN
	1.050074	0.823020	NaN
	0.975724	0.775922	NaN
	0.975724	0.823022	NaN
	0.975724	0.775922	NaN
	0.895222	0.775921	NaN
	0.895222	0.775921	NaN
	0.852122	0.725773	NaN
	0.806725	0.775921	NaN
	0.707241	0.671890	NaN
	0.707241	0.671890	NaN
	0.651830	0.671890	NaN
	0.651830	0.548471	NaN
	0.523705	0.613292	NaN
	0.446049	0.474879	NaN
	0.351643	0.387557	NaN
	0.351643	0.273662	NaN
	0.219877	0.273662	NaN
	NaN	NaN	NaN
	NaN	NaN	NaN
	NaN	NaN	NaN
	NaN	NaN	NaN
	NaN	NaN	NaN
	NaN	NaN	NaN
	NaN	NaN	NaN
	NaN	NaN	NaN
	NaN	NaN	NaN
	NaN	NaN	NaN
	NaN	NaN	NaN
	NaN	NaN	0.038243
	NaN	NaN	0.277072
	NaN	NaN	0.389968
	NaN	NaN	0.389968
	NaN	NaN	0.389968
	NaN	NaN	0.476846
	NaN	NaN	0.614814
	NaN	NaN	0.614814
	NaN	NaN	0.727055
	NaN	NaN	0.727055
	NaN	NaN	0.727055
	NaN	NaN	0.824150
	NaN	NaN	0.824150
	NaN	NaN	0.868636
	NaN	NaN	0.868636
	NaN	0.775909	0.910954
	NaN	NaN	0.910954
	NaN	NaN	0.910954
	NaN	NaN	0.951390
	NaN	NaN	0.990177
	NaN	NaN	0.990177
	NaN	NaN	0.990177
	NaN	NaN	0.990177
	NaN	NaN	1.027501
	NaN	NaN	1.063515
	NaN	NaN	1.063515
	NaN	NaN	1.027501
	NaN	NaN	1.063515
	NaN	NaN	1.027501
	NaN	NaN	1.027501
	NaN	NaN	1.027501
	NaN	NaN	1.027501
	NaN	NaN	1.063516
	NaN	NaN	1.063516
	NaN	NaN	1.063516
	NaN	NaN	1.063516
	NaN	NaN	1.027501
	NaN	NaN	1.027501
	NaN	NaN	1.027501
	NaN	NaN	0.990178
	NaN	NaN	0.990178
	NaN	NaN	0.990178
	NaN	NaN	0.951392
	NaN	NaN	0.951392
	NaN	NaN	0.951392
	NaN	NaN	0.951392
	NaN	NaN	0.910955
	NaN	NaN	0.910955
	NaN	NaN	0.910955
	NaN	NaN	0.868639
	0.219989	NaN	0.868639
	0.219989	NaN	0.824152
	0.446107	NaN	0.824152
	0.446107	NaN	0.777123
	0.523754	NaN	0.727058
	0.523754	NaN	0.777123
	0.591291	NaN	0.727058
	0.591291	NaN	0.727058
	0.651868	NaN	0.727058
	0.651868	NaN	0.727058
	0.707276	NaN	0.673281
	0.707276	NaN	0.673281
	0.707276	NaN	0.614818
	0.758647	NaN	0.550176
	0.806756	NaN	0.476851
	0.852151	NaN	0.389976
	0.852151	NaN	0.476853
	0.806754	NaN	0.389977
	0.852150	NaN	0.389977
	0.852150	0.387554	0.038316
	0.852150	0.273662	0.038316
	0.936363	0.273662	NaN
	0.895246	0.273662	NaN
	0.895246	0.387557	NaN
	0.895246	0.387557	NaN
	0.975747	0.474877	NaN
	0.936361	0.474879	NaN
	0.975747	0.474879	NaN
	0.936361	0.548468	NaN
	0.936361	0.613292	NaN
	1.013602	0.613292	NaN
	0.975746	0.613292	NaN
	0.975746	0.613292	NaN
	1.013601	0.613292	NaN
	1.013601	0.671890	NaN
	1.013601	0.671890	NaN
	1.050092	0.725771	NaN
	1.050092	0.725773	NaN
	1.050092	0.775921	NaN
	1.085357	0.775921	NaN
	1.050091	0.775921	NaN
	1.050091	0.775921	NaN
	1.050091	0.725773	NaN
	1.085356	0.823020	NaN
	1.085356	0.725773	NaN
	1.085356	0.823020	NaN
	1.050090	0.725773	NaN
	1.085356	0.775921	NaN
	1.085356	0.823020	NaN
	1.085356	0.725773	NaN
	1.119511	0.725773	NaN
	1.085355	0.725773	NaN
	1.085355	0.775922	NaN
	1.085355	0.823020	NaN
	1.085355	0.775921	NaN
	1.085355	0.775921	NaN
	1.119510	0.775921	NaN
	1.119511	0.775921	NaN
	1.152654	0.775921	NaN
	1.119510	0.775921	NaN
	1.119510	0.775921	NaN
	1.152654	1.287000	NaN
	1.152654	1.315932	NaN
	1.152654	0.823019	NaN
	1.152654	0.273667	NaN
	1.152654	0.387557	NaN
	1.152654	0.474879	NaN
	1.152654	0.548468	NaN
	1.152654	0.548468	NaN
	1.152654	0.548468	NaN
	1.119511	0.613292	NaN
	1.119511	0.613292	NaN
	1.119511	0.671888	NaN
	1.152655	0.671888	NaN
	1.119511	0.671888	NaN
	1.119511	0.671888	NaN
	1.085356	0.671888	NaN
	1.119512	0.671888	NaN
	1.085357	0.671888	NaN
	1.085357	0.613290	NaN
	1.050092	0.613290	NaN
	1.050092	0.548468	NaN
	1.050092	0.548468	NaN
	1.050093	0.548468	NaN
	1.050093	0.548468	NaN
	1.050093	0.548468	NaN
	1.050093	0.548468	NaN
	1.013602	0.548468	NaN
	1.013602	0.474877	NaN
	1.013602	0.548468	0.038359
	1.013602	0.474877	0.038359
	0.975747	0.474877	0.038359
	1.013603	0.474877	0.277088
	0.975748	0.387554	0.389981
	0.975748	0.387554	0.476856
	1.013605	0.387554	0.389980
	0.936364	0.387554	0.389980
	0.975750	0.387554	0.389980
	0.975750	0.387554	0.476855
	0.975750	0.273658	0.476855
	0.936366	0.273658	0.614821
	0.975751	0.273658	0.614820
	0.975751	NaN	0.673284
	0.975751	NaN	0.673284
	0.975751	NaN	0.673284
	0.936367	NaN	0.673283
	0.936367	NaN	0.673283
	0.936367	NaN	0.673283
	0.895252	NaN	0.777125
	0.936368	NaN	0.777125
	0.895252	NaN	0.824154
	0.895252	NaN	0.824154
	0.895252	NaN	0.824154
	0.852156	NaN	0.824154
	0.852156	NaN	0.824154
	0.852156	NaN	0.824154
	0.852156	NaN	0.868641
	0.806759	NaN	0.868641
	0.758652	NaN	0.868641
	0.806759	NaN	0.868641
	0.758652	NaN	0.910957
	0.758652	NaN	0.868641
	0.758652	NaN	0.824154
	0.758652	NaN	0.824154
	0.758652	NaN	0.868640
	0.707279	NaN	0.824154
	0.707279	NaN	0.868640
	0.707279	NaN	0.868640
	0.651870	NaN	0.868640
	0.651870	NaN	0.868640
	0.651870	NaN	0.868640
	0.651870	NaN	0.868640
	0.651870	NaN	0.868640
	0.707277	NaN	0.824154
	0.651870	NaN	0.777124
	0.651870	NaN	0.777124
	0.651868	NaN	0.777124
	0.651868	NaN	0.777124
	0.651868	NaN	0.777124
	0.651868	NaN	0.777124
	0.651868	NaN	0.777124
	0.651868	NaN	0.727059
	0.651866	NaN	0.777124
	0.651866	NaN	0.727059
	0.651866	NaN	0.727059
	0.651866	NaN	0.727059
	0.707274	NaN	0.727059
	0.651864	NaN	0.673282
	0.651864	NaN	0.614818
	0.651864	NaN	0.614818
	0.707272	NaN	0.614818
	0.707272	NaN	0.550177
	0.707272	NaN	0.550177
	0.707272	NaN	0.550177
	0.758644	NaN	0.476851
	0.758644	NaN	0.476851
	0.707270	NaN	0.476851
	0.758644	NaN	0.389976
	0.758644	NaN	0.389976
	0.758642	NaN	0.389976
	0.758642	NaN	0.389976
	0.758642	NaN	0.277082
	0.806749	NaN	0.038301
	0.806749	NaN	0.038301
	0.806749	NaN	0.277082
	0.806749	NaN	NaN
	0.758640	NaN	NaN
	0.758640	NaN	NaN
	0.806748	NaN	NaN
	0.806748	NaN	NaN
	0.806748	0.273662	NaN
	0.806748	0.387554	NaN
	0.806748	0.273662	NaN
	0.806746	0.273662	NaN
	0.806746	0.273662	NaN
	0.806746	0.273662	NaN
	0.806746	0.273662	NaN
	0.806746	0.474877	NaN
	0.806745	0.387557	NaN
	0.806745	0.474877	NaN
	0.806745	0.474877	NaN
	0.806745	0.474877	NaN
	0.806745	0.474877	NaN
	0.806743	0.474877	NaN
	0.806743	0.548468	NaN
	0.806743	0.548468	NaN
	0.806743	0.548468	NaN
	0.806743	0.548468	NaN
	0.852139	0.548468	NaN
	0.852139	0.548468	NaN
	0.806741	0.548468	NaN
	0.806741	0.548468	NaN
	0.806741	0.548468	NaN
	0.806741	0.548468	NaN
	0.806741	0.548468	NaN
	0.852138	0.548468	NaN
	0.852138	0.548468	NaN
	0.852138	0.548468	NaN
	0.852138	0.548468	NaN
	0.758632	0.548468	NaN
	0.806740	0.548468	NaN
	0.806740	0.474877	NaN
	0.806740	0.474877	NaN
	0.758632	0.474877	NaN
	0.758630	0.474877	NaN
	0.806740	0.474877	NaN
	0.806740	0.474877	NaN
	0.806740	0.273662	NaN
	0.758632	0.273662	NaN
	0.707257	0.273662	NaN
	0.707257	0.273662	NaN
	0.707257	0.273662	NaN
	0.707257	NaN	NaN
	0.707257	0.273662	NaN
	0.707257	NaN	NaN
	0.707257	NaN	NaN
	0.707257	NaN	NaN
	0.707257	NaN	NaN
	0.651848	NaN	NaN
	0.651848	NaN	NaN
	0.651848	NaN	NaN
	0.707259	NaN	NaN
	0.651848	NaN	NaN
	0.707259	NaN	NaN
	0.651850	NaN	NaN
	0.651850	NaN	NaN
	0.651850	NaN	NaN
	0.651852	NaN	NaN
	0.707261	NaN	NaN
	0.651852	NaN	0.038272
	0.651852	NaN	0.038272
	0.651852	NaN	0.038272
	0.707263	NaN	0.038272
	0.707263	NaN	0.277076
	0.707263	NaN	0.277076
	0.707265	NaN	0.277076
	0.707265	NaN	0.389971
	0.707265	NaN	0.476849
	0.651856	NaN	0.476849
	0.707265	NaN	0.476849
	0.707266	NaN	0.550174
	0.707266	NaN	0.476849
	0.758640	NaN	0.550174
	0.707266	NaN	0.614816
	0.758640	NaN	0.614816
	0.707268	NaN	0.614816
	0.707268	NaN	0.614816
	0.707268	NaN	0.673280
	0.707268	NaN	0.673280
	0.758642	NaN	0.614816
	0.758642	NaN	0.614815
	0.758642	NaN	0.673280
	0.758644	NaN	0.673280
	0.758644	NaN	0.673280
	0.758644	NaN	0.673280
	0.758644	NaN	0.673280
	0.758644	NaN	0.673280
	0.758644	NaN	0.727058
	0.758644	NaN	0.673280
	0.758644	NaN	0.727058
	0.806753	NaN	0.727058
	0.806753	NaN	0.727058
	0.806753	NaN	0.727058
	0.806753	NaN	0.614816
	0.806753	NaN	0.673280
	0.806753	NaN	0.673280
	0.806753	NaN	0.673280
	0.852150	NaN	0.673280
	0.806753	NaN	0.614817
	0.852150	NaN	0.614817
	0.806753	NaN	0.614817
	0.895246	NaN	0.614817
	0.852150	NaN	0.614817
	0.895246	NaN	0.614817
	0.895246	NaN	0.550176
	0.895246	NaN	0.550176
	0.895246	NaN	0.550176
	0.895246	NaN	0.476851
	0.895246	NaN	0.476851
	0.895246	NaN	0.476851
	0.936361	NaN	0.476851
	0.895246	NaN	0.389976
	0.936361	NaN	0.389976
	0.936361	NaN	0.389976
	0.936361	NaN	0.389976
	0.936361	NaN	0.389976
	0.936361	NaN	0.389976
	0.936361	NaN	0.389976
	0.936361	NaN	0.389976
	0.936361	NaN	0.389976
	0.936360	NaN	0.389976
	0.895245	NaN	0.277082
	0.936360	NaN	0.277082
	0.936360	NaN	0.038316
	0.936360	NaN	0.038316
	0.936360	0.273662	0.038316
	0.975744	0.273662	NaN
	0.975744	0.273662	0.038316
	0.975744	0.273662	NaN
	0.975744	NaN	NaN
	0.975744	NaN	NaN
	0.975744	0.273662	NaN
	0.975744	0.273662	NaN
	0.975744	0.387557	NaN
	0.975744	0.273662	NaN
	0.975744	0.273662	NaN
	1.013599	NaN	NaN
	0.936359	0.273662	NaN
	0.975744	0.273662	NaN
	1.013599	0.387557	NaN
	1.013599	0.387557	NaN
	1.013599	0.387557	NaN
	1.013599	0.387557	NaN
	0.975743	0.387557	NaN
	1.013599	0.474877	NaN
	1.013599	0.387557	NaN
	0.975743	0.387557	NaN
	1.013599	0.387557	NaN
	1.013599	0.387557	NaN
	1.013599	0.387557	NaN
	0.975743	0.474877	NaN
	0.975743	0.548468	NaN
	0.975743	0.548468	NaN
	0.975743	0.548468	NaN
	0.975743	0.474877	NaN
	0.975743	0.474877	NaN
	0.975743	0.474877	NaN
	0.936359	0.474877	NaN
	0.936359	0.548468	NaN
	0.936359	0.474877	NaN
	0.936359	0.474877	NaN
	0.936359	0.474877	NaN
	0.936359	0.474877	NaN
	0.936359	0.474877	NaN
	0.936359	0.474877	NaN
	0.936359	0.474877	NaN
	0.936359	0.474877	NaN
	0.895243	0.474877	NaN
	0.895243	0.387554	NaN
	0.895243	0.387554	NaN
	0.895243	0.387554	NaN
	0.895243	0.387554	NaN
	0.852147	0.387554	NaN
	0.806749	0.387554	NaN
	0.852147	0.387554	NaN
	0.852147	0.273658	0.038345
	0.852147	0.387554	NaN
	0.852147	0.387554	NaN
	0.852147	0.273658	0.038345
	0.852147	0.273658	0.038345
	0.806751	0.273658	NaN
	0.806751	0.273658	0.038345
	0.806751	0.273658	0.277086
	0.758644	0.273658	0.277086
	0.806751	0.273658	0.277086
	0.758644	0.273658	0.277086
	0.758644	0.273658	0.277086
	0.758644	0.273658	0.277086
	0.758644	NaN	0.277086
	0.758644	NaN	0.277086
	0.758644	NaN	0.389978
	0.707272	NaN	0.389978
	0.707272	NaN	0.389978
	0.707272	NaN	0.389978
	0.707272	NaN	0.389978
	0.707272	NaN	0.389978
	0.651864	NaN	0.389978
	0.651864	NaN	0.476854
	0.651864	NaN	0.476854
	0.651864	NaN	0.476854
	0.591284	NaN	0.476854
	0.651864	NaN	0.476854
	0.591287	NaN	0.476854
	0.651864	NaN	0.476854
	0.651864	NaN	0.550178
	0.651864	NaN	0.550178
	0.651864	NaN	0.550178
	0.651864	NaN	0.550178
	0.523747	NaN	0.550178
	0.591284	NaN	0.550178
	0.591287	NaN	0.550178
	0.591287	NaN	0.550178
	0.651864	NaN	0.550178
	0.651864	NaN	0.550178
	0.651864	NaN	0.550178
	0.591284	NaN	0.550178
	0.591284	NaN	0.550178
	0.523747	NaN	0.476853
	0.523747	NaN	0.550177
	0.591284	NaN	0.550178
	0.591284	NaN	0.550178
	0.591284	NaN	0.550178
	0.591284	NaN	0.550178
	0.591284	NaN	0.550178
	0.591284	NaN	0.614819
	0.591284	NaN	0.550178
	0.591284	NaN	0.550178
	0.591284	NaN	0.476853
	0.591284	NaN	0.550177
	0.651862	NaN	0.476853
	0.651862	NaN	0.476853
	0.591284	NaN	0.476853
	0.651862	NaN	0.476853
	0.651862	NaN	0.476853
	0.591282	NaN	0.550178
	0.651862	NaN	0.476853
	0.651862	NaN	0.476853
	0.651862	NaN	0.476853
	0.707270	NaN	0.476853
	0.651860	NaN	0.389977
	0.707270	NaN	0.389977
	0.707270	NaN	0.389977
	0.651860	NaN	0.389977
	0.707270	NaN	0.277082
	0.651860	NaN	0.277082
	0.651860	NaN	0.038316
	0.651860	NaN	0.277082
	0.707268	NaN	0.277082
	0.707268	NaN	0.038316
	0.707268	NaN	0.038316
	0.758640	NaN	0.038316
	0.707268	NaN	0.038316
	0.758640	NaN	0.038316
	0.758640	NaN	0.038316
	0.758640	NaN	0.038316
	0.707268	NaN	NaN
	0.758640	NaN	NaN
	0.758640	NaN	NaN
	0.707266	0.273658	NaN
	0.707266	NaN	NaN
	0.758640	NaN	NaN
	0.758640	NaN	NaN
	0.707266	NaN	NaN
	0.758639	NaN	NaN
	0.758639	NaN	NaN
	0.758639	NaN	NaN
	0.758639	NaN	NaN
	0.758639	0.273658	NaN
	0.758639	NaN	NaN
	0.758639	NaN	NaN
	0.758639	NaN	NaN
	0.806746	NaN	NaN
	0.806746	0.273662	NaN
	0.806746	0.273662	NaN
	0.806746	0.387554	NaN
	0.806746	0.273662	NaN
	0.806746	0.273662	NaN
	0.806746	0.273662	NaN
	0.806746	0.273662	NaN
	0.806746	0.273658	NaN
	0.852142	0.273662	NaN
	0.852142	0.273658	NaN
	0.852142	0.387554	NaN
	0.852142	NaN	NaN
	0.852142	0.273662	NaN
	0.852142	0.273662	NaN
	0.852142	0.273662	NaN
	0.852142	0.387554	NaN
	0.852142	NaN	NaN
	0.852142	NaN	NaN
	0.852142	0.273662	NaN
	0.852142	NaN	NaN
	0.895241	NaN	NaN
	0.895241	NaN	NaN
	0.852142	NaN	NaN
	0.895241	NaN	NaN
	0.895241	NaN	NaN
	0.895241	NaN	NaN
	0.895241	NaN	NaN
	0.895241	NaN	NaN
	0.895241	NaN	NaN
	0.895241	NaN	NaN
	0.895241	NaN	NaN
	0.895241	NaN	NaN
	0.895241	NaN	NaN
	0.895241	NaN	NaN
	0.895241	NaN	NaN
	0.895241	NaN	NaN
	0.895241	NaN	NaN
	0.895241	NaN	NaN
	0.895241	NaN	NaN
	0.895241	NaN	0.038301
	0.936357	NaN	0.038287
	0.895241	NaN	0.277080
	0.895242	NaN	0.277080
	0.895242	NaN	0.277080
	0.936357	NaN	0.277080
	0.895242	NaN	0.277080
	0.895242	NaN	0.277080
	0.895242	NaN	0.277080
	0.895242	NaN	0.038287
	0.895242	NaN	0.389974
	0.895242	NaN	0.277080
	0.936359	NaN	0.389974
	0.936359	NaN	0.389974
	0.936359	NaN	0.389974
	0.936359	NaN	0.389974
	0.936359	NaN	0.389974
	0.936359	NaN	0.389974
	0.895243	NaN	0.476850
	0.975744	NaN	0.389974
	0.895243	NaN	0.389974
	0.936360	NaN	0.389974
	0.895243	NaN	0.389974
	0.895243	NaN	0.389974
	0.936360	NaN	0.476850
	0.895243	NaN	0.389974
	0.895243	NaN	0.389974
	0.895243	NaN	0.476851
	0.936360	NaN	0.476851
	0.936360	NaN	0.476851
	0.895243	NaN	0.389974
	0.895243	NaN	0.389974
	0.895243	NaN	0.476851
	0.895243	NaN	0.389974
	0.936360	NaN	0.476850
	0.895245	NaN	0.389974
	0.852147	NaN	0.476851
	0.852147	NaN	0.389974
	0.852147	NaN	0.476851
	0.895245	NaN	0.476851
	0.895245	NaN	0.389974
	0.852147	NaN	0.389974
	0.852147	NaN	0.476851
	0.895243	NaN	0.476851
	0.936360	NaN	0.476851
	0.852147	NaN	0.389974
	0.852147	NaN	0.476851
	0.852147	NaN	0.476851
	0.852147	NaN	0.277080
	0.895243	NaN	0.476851
	0.936360	NaN	0.389974
	0.895243	NaN	0.277080
	0.852147	NaN	0.389976
	0.852147	NaN	0.389976
	0.895243	NaN	0.389976
	0.895243	NaN	0.389976
	0.895243	NaN	0.277080
	0.895243	NaN	0.277080
	0.852147	NaN	0.277080
	0.895243	NaN	0.277080
	0.895243	NaN	0.277080
	0.895243	NaN	0.277082
	0.895243	NaN	0.038301
	0.895243	NaN	0.277082
	0.895243	NaN	0.038301
	0.852145	NaN	0.038301
	0.895243	NaN	0.277082
	0.895243	NaN	NaN
	0.852145	NaN	0.038316
	0.895243	NaN	NaN
	0.852145	NaN	NaN
	0.852145	NaN	0.038316
	0.852145	NaN	0.038316
	0.852145	NaN	NaN
	0.852145	NaN	0.038316
	0.852145	NaN	NaN
	0.852145	NaN	0.038316
	0.852145	NaN	NaN
	0.852145	NaN	NaN
	0.852145	NaN	NaN
	0.852145	NaN	NaN
	0.852145	NaN	NaN
	0.852145	NaN	NaN
	0.895242	0.273662	NaN
	0.852145	0.273662	NaN
	0.806748	0.273662	NaN
	0.852145	NaN	NaN
	0.852145	0.273662	NaN
	0.895242	0.273658	NaN
	0.852145	0.273662	NaN
	0.895242	NaN	NaN
	0.852145	NaN	NaN
	0.852145	0.273662	NaN
	0.852145	NaN	NaN
	0.852145	NaN	NaN
	0.806748	0.273658	NaN
	0.852145	NaN	NaN
	0.852145	NaN	NaN
	0.806748	0.273662	NaN
	0.806748	0.273658	NaN
	0.806748	NaN	NaN
	0.806748	NaN	NaN
	0.806748	0.273662	NaN
	0.758640	0.273658	NaN
	0.758640	NaN	NaN
	0.758640	NaN	NaN
	0.758640	NaN	NaN
	0.758640	NaN	NaN
	0.758640	0.273662	NaN
	0.758640	NaN	NaN
	0.758640	0.273658	NaN
	0.758640	0.273658	NaN
	0.758640	0.273658	NaN
	0.758640	0.273658	NaN
	0.758640	0.273658	0.038330
	0.758640	0.273658	0.038330
	0.758640	0.273658	NaN
	0.707268	0.273658	NaN
	0.707268	0.273658	NaN
	0.758640	0.273658	NaN
	0.707268	0.273658	0.038330
	0.651860	0.273658	NaN
	0.707268	NaN	0.038330
	0.707268	NaN	0.038330
	0.651860	NaN	NaN
	0.707268	NaN	0.038330
	0.651860	NaN	0.038330
	0.651860	NaN	NaN
	0.651860	NaN	0.038330
	0.651860	NaN	NaN
	0.651860	NaN	0.277084
	0.651860	NaN	NaN
	0.651860	NaN	0.038330
	0.651860	NaN	0.277084
	0.651860	NaN	0.277084
	0.651860	NaN	0.277084
	0.707270	NaN	0.277084
	0.707270	NaN	0.277084
	0.707270	NaN	0.277084
	0.707270	NaN	0.277084
	0.707270	NaN	0.277084
	0.707270	NaN	0.277084
	0.651862	NaN	0.277084
	0.651862	NaN	0.277084
	0.707270	NaN	0.277084
	0.651862	NaN	0.277084
	0.651862	NaN	0.277084
	0.707270	NaN	0.389977
	0.651862	NaN	0.389977
	0.651862	NaN	0.389977
	0.651862	NaN	0.389977
	0.651862	NaN	0.389977
	0.651862	NaN	0.389977
	0.651862	NaN	0.389977
	0.707270	NaN	0.476854
	0.707270	NaN	0.389977
	0.707270	NaN	0.389977
	0.651862	NaN	0.389977
	0.651862	NaN	0.389977
	0.707270	NaN	0.389977
	0.707270	NaN	0.389977
	0.707270	NaN	0.389977
	0.707270	NaN	0.389977
	0.707270	NaN	0.389977
	0.707270	NaN	0.389977
	0.707270	NaN	0.389977
	0.707270	NaN	0.389977
	0.758644	NaN	0.389977
	0.707270	NaN	0.389977
	0.758644	NaN	0.389977
	0.707270	NaN	0.389977
	0.758644	NaN	0.389977
	0.758644	NaN	0.389977
	0.758644	NaN	0.389977
	0.758644	NaN	0.277082
	0.707270	NaN	0.277082
	0.707270	NaN	0.389977
	0.806751	NaN	0.389977
	0.806751	NaN	0.389977
	0.806751	NaN	0.389977
	0.758644	NaN	0.277084
	0.707270	NaN	0.389977
	0.758642	NaN	0.277084
	0.806751	NaN	0.277084
	0.806751	NaN	0.277082
	0.806751	NaN	0.038316
	0.852147	NaN	0.277084
	0.852147	NaN	0.038316
	0.806751	NaN	0.277084
	0.806751	NaN	0.038316
	0.806751	NaN	0.038316
	0.852147	NaN	0.038316
	0.852147	NaN	0.277084
	0.852147	NaN	0.038316
	0.852147	NaN	0.038316
	0.852147	NaN	0.038316
	0.852147	NaN	0.038316
	0.852147	NaN	NaN
	0.806749	NaN	0.038316
	0.852147	NaN	NaN
	0.895243	NaN	NaN
	0.852145	NaN	NaN
	0.852145	NaN	NaN
	0.852145	NaN	NaN
	0.895243	NaN	NaN
	0.895243	NaN	NaN
	0.852145	NaN	NaN
	0.895243	NaN	NaN
	0.895243	NaN	NaN
	0.852145	NaN	NaN
	0.852145	0.273662	NaN
	0.852145	NaN	NaN
	0.852145	NaN	NaN
	0.852145	NaN	NaN
	0.852145	NaN	NaN
	0.852145	NaN	NaN
	0.936359	NaN	NaN
	0.852145	NaN	NaN
	0.895243	NaN	NaN
	0.936359	0.273662	NaN
	0.895242	NaN	NaN
	0.936359	NaN	NaN
	0.895242	NaN	NaN
	0.895242	NaN	NaN
	0.895242	NaN	NaN
	0.895242	NaN	NaN
	0.852145	NaN	0.038316
	0.895243	NaN	0.038316
	0.852145	NaN	0.038316
	0.852145	NaN	NaN
	0.806748	NaN	NaN
	0.758639	NaN	NaN
	0.707263	NaN	NaN
	0.651852	NaN	NaN
	0.651850	NaN	NaN
	0.651846	NaN	NaN
	0.651844	0.273677	NaN
	0.707252	0.387567	NaN
	0.707248	0.548478	NaN
	0.707246	0.613298	NaN
	0.707244	0.613300	NaN
	0.707243	0.671896	NaN
	0.758616	0.548475	NaN
	0.707241	0.387567	NaN
	0.758615	0.387567	NaN
	0.806722	NaN	NaN
	0.852119	NaN	NaN
	0.895217	NaN	NaN
	0.936334	NaN	NaN
	0.852118	NaN	NaN
	0.975720	NaN	NaN
	1.152637	NaN	NaN
	1.085337	NaN	NaN
	1.085337	NaN	NaN
	1.119493	NaN	NaN
	1.152637	NaN	NaN
	1.216218	NaN	NaN
	1.246794	NaN	NaN
	1.305798	NaN	NaN
	1.362249	NaN	0.277078
	1.276636	NaN	0.550174
	1.442790	NaN	0.727056
	1.494074	NaN	0.777121
	1.468655	NaN	0.727055
	1.494073	NaN	0.550170
	1.543655	NaN	0.824148
	1.494072	NaN	0.951390
	1.543654	NaN	1.098350
	1.543653	NaN	1.258136
	1.567856	NaN	1.258135
	1.638322	NaN	1.164896
	1.683660	NaN	1.027499
	1.749468	NaN	0.951389
	1.812888	NaN	0.824147
	1.833542	NaN	0.673275
	1.833542	NaN	0.550168
	1.833544	NaN	0.550170
	1.812892	NaN	0.673277
	1.812894	NaN	0.824151
	1.770868	NaN	0.868637
	1.749477	NaN	0.824150
	1.661156	NaN	0.824150
	1.615187	NaN	0.824150
	1.543667	NaN	0.868637
	1.468670	NaN	0.868638
	1.416467	NaN	0.868639
	1.334338	NaN	0.868639
	1.246811	NaN	0.824153
	1.216237	NaN	0.727059
	1.119514	NaN	0.727060
	1.085361	NaN	0.673283
	1.050096	NaN	0.673284
	0.975750	NaN	0.550179
	1.013606	NaN	0.476856
	1.013607	NaN	0.476856
	0.975752	0.273686	0.476857
	0.975754	0.387571	0.476858
	0.975754	0.613298	0.476860
	1.013610	0.725775	0.476861
	1.013611	0.725773	0.389987
	0.975756	0.775921	0.389988
	0.936373	0.823019	0.277100
	0.936374	0.909931	0.277102
	0.895259	0.950411	0.277102
	0.936375	1.026595	0.038460
	0.936377	1.062640	0.277104
	0.936377	1.062639	0.389993
	0.895262	1.131291	0.389993
	0.895262	1.131290	0.389993
	0.895262	1.164098	0.277104
	0.852166	1.196006	0.476865
	0.852166	1.196006	0.389991
	0.806772	1.196006	0.389993
	0.806772	1.227085	0.277104
	0.806772	1.227085	0.277104
	0.806772	1.227085	0.277104
	0.758664	1.227085	0.277104
	0.806772	1.196005	0.277104
	0.707294	1.196005	0.389993
	0.707294	1.196005	0.389993
	0.707294	1.164095	0.476865
	0.591311	1.164095	0.476865
	0.591311	1.131286	0.550188
	0.591311	1.131286	0.614828
	0.523774	1.062634	0.614828
	0.446130	1.062634	0.614828
	0.351746	1.026589	0.727068
	0.351746	0.989230	0.673290
	0.351746	1.026589	0.727067
	0.220042	0.950404	0.777132
	NaN	0.867555	0.777132
	NaN	0.823008	0.777132
	NaN	0.823008	0.824160
	NaN	0.775909	0.868646
	NaN	0.823010	0.824160
	NaN	0.775909	0.824160
	NaN	0.725760	0.824160
	NaN	0.671877	0.868646
	NaN	0.613279	0.868646
	NaN	0.548456	0.910962
	NaN	0.548456	0.910962
	NaN	0.548456	0.951398
	NaN	0.474863	0.951398
	NaN	0.273639	0.951398
	NaN	0.273639	0.951398
	NaN	0.273639	0.910961
	NaN	0.273639	0.910961
	NaN	0.273639	0.868645
	NaN	NaN	0.868645
	NaN	NaN	0.910961
	NaN	NaN	0.868644
	NaN	NaN	0.951397
	NaN	NaN	0.951397
	NaN	NaN	0.910960
	NaN	NaN	0.910960
	NaN	NaN	0.910960
	NaN	NaN	0.868643
	NaN	NaN	0.868643
	NaN	NaN	0.910960
	NaN	NaN	0.910960
	NaN	NaN	0.910960
	NaN	NaN	0.951396
	NaN	NaN	0.990182
	NaN	NaN	0.990182
	NaN	NaN	0.990182
	NaN	NaN	0.990182
	NaN	NaN	0.990182
	NaN	NaN	1.027505
	NaN	NaN	1.027505
	NaN	NaN	0.990181
	NaN	NaN	1.027505
	NaN	NaN	0.990181
	NaN	NaN	0.990181
	NaN	NaN	1.027505
	NaN	NaN	1.027505
	NaN	NaN	1.063519
	NaN	NaN	1.063519
	NaN	NaN	1.063519
	NaN	NaN	1.063519
	NaN	NaN	1.098353
	NaN	NaN	1.063519
	NaN	NaN	1.027504
	NaN	NaN	0.990181
	NaN	NaN	1.027504
	NaN	NaN	1.027504
	NaN	NaN	0.990181
	NaN	NaN	1.027504
	NaN	NaN	1.027504
	NaN	NaN	1.027504
	NaN	NaN	1.027504
	NaN	NaN	0.990180
	NaN	NaN	1.027504
	NaN	NaN	0.990180
	NaN	NaN	0.990180
	NaN	NaN	0.951394
	NaN	NaN	0.951394
	NaN	NaN	0.951394
	NaN	NaN	0.951394
	NaN	NaN	0.951394
	NaN	NaN	0.910957
	NaN	NaN	0.910957
	NaN	NaN	0.868641
	NaN	NaN	0.868641
	NaN	NaN	0.868641
	NaN	NaN	0.868641
	NaN	NaN	0.868641
	NaN	NaN	0.910958
	NaN	NaN	0.868641
	NaN	NaN	0.824154
	NaN	NaN	0.824154
	NaN	NaN	0.824154
	NaN	NaN	0.824154
	NaN	NaN	0.777125
	NaN	NaN	0.777125
	NaN	NaN	0.824155
	NaN	NaN	0.777125
	NaN	NaN	0.727061
	NaN	NaN	0.727061
	NaN	NaN	0.727061
	NaN	NaN	0.673284
	NaN	NaN	0.673284
	NaN	NaN	0.673284
	NaN	NaN	0.614821
	NaN	NaN	0.550179
	NaN	NaN	0.476855
	NaN	NaN	0.476855
	NaN	NaN	0.389980
	NaN	NaN	0.389980
	NaN	NaN	0.389980
	NaN	0.273648	0.389980
	NaN	0.273648	0.277088
	NaN	0.387547	0.277088
	NaN	0.474871	0.277088
	NaN	0.387547	0.277090
	NaN	0.474871	NaN
	NaN	0.474871	NaN
	NaN	0.548463	NaN
	NaN	0.548463	NaN
	NaN	0.548463	NaN
	NaN	0.613288	NaN
	NaN	0.613288	NaN
	NaN	0.613288	NaN
	0.219954	0.725767	NaN
	0.219954	0.775917	NaN
	0.351691	0.725769	NaN
	0.351691	0.775919	NaN
	0.446087	0.775919	NaN
	0.351687	0.823017	NaN
	0.446084	0.775919	NaN
	0.523734	0.867564	NaN
	0.523734	0.823019	NaN
	0.523734	0.823019	NaN
	0.591274	0.867565	NaN
	0.651852	0.867565	NaN
	0.651852	0.950414	NaN
	0.707261	0.950414	NaN
	0.758634	0.909934	NaN
	0.806741	0.867567	NaN
	0.806741	0.909934	NaN
	0.852138	0.867567	NaN
	0.895235	0.909935	NaN
	0.936350	0.909935	NaN
	0.975735	0.950416	NaN
	0.975735	0.950416	NaN
	1.013591	0.950416	NaN
	1.013591	0.950416	NaN
	1.050082	0.950416	NaN
	1.119504	1.646417	NaN
	1.152647	0.823024	NaN
	1.184864	0.823024	NaN
	1.216229	0.823024	NaN
	1.216229	0.823024	NaN
	1.246803	0.823025	NaN
	1.276646	0.823025	NaN
	1.334332	0.823025	NaN
	1.362259	0.823025	NaN
	1.362259	0.823025	NaN
	1.362259	0.823025	NaN
	1.389624	0.775927	NaN
	1.416461	0.775927	NaN
	1.416461	0.823027	NaN
	1.442799	0.823027	NaN
	1.442799	0.823027	NaN
	1.442799	0.823027	NaN
	1.468665	0.823027	NaN
	1.494083	0.823027	NaN
	1.494083	0.823025	NaN
	1.494083	0.775927	NaN
	1.519076	0.775927	NaN
	1.519076	0.775927	NaN
	1.543665	0.823025	NaN
	1.543665	0.823025	NaN
	1.567867	0.823025	NaN
	1.567867	0.823025	NaN
	1.567867	0.775927	NaN
	1.543665	0.775926	NaN
	1.567867	0.823025	NaN
	1.567867	0.867570	NaN
	1.567867	0.823024	NaN
	1.567867	0.775926	NaN
	1.567867	0.671896	NaN
	1.567867	0.671896	NaN
	1.567867	0.671896	NaN
	1.567867	0.613298	NaN
	1.543665	0.671896	NaN
	1.543665	0.613298	NaN
	1.519077	0.613298	NaN
	1.519077	0.548475	NaN
	1.494084	0.387567	NaN
	1.494084	0.387567	NaN
	1.468666	0.273677	NaN
	1.494085	0.273677	NaN
	1.494085	NaN	NaN
	1.494085	NaN	NaN
	1.468667	NaN	NaN
	1.468667	NaN	NaN
	1.416463	NaN	NaN
	1.416463	NaN	NaN
	1.389626	NaN	NaN
	1.389626	NaN	0.389967
	1.362261	NaN	0.673277
	1.362261	NaN	0.673277
	1.305810	NaN	0.614814
	1.305810	NaN	0.550171
	1.305810	NaN	0.389967
	1.276649	NaN	0.038199
	1.276650	NaN	0.038199
	1.276650	NaN	NaN
	1.246808	NaN	NaN
	1.246808	NaN	0.277066
	1.216233	NaN	0.614812
	1.216233	NaN	0.824149
	1.184869	NaN	0.910953
	1.216234	NaN	0.951389
	1.184870	NaN	0.990176
	1.184870	NaN	0.990176
	1.184870	NaN	0.910952
	1.119511	NaN	0.910952
	1.119511	NaN	0.910952
	1.085356	NaN	0.868636
	1.085356	NaN	0.910952
	1.085356	NaN	0.910952
	1.050091	NaN	0.951389
	1.013599	NaN	0.990176
	0.975744	NaN	1.063514
	0.975744	NaN	1.063514
	1.013601	NaN	1.098349
	0.936360	NaN	1.098349
	0.975746	NaN	1.063514
	0.936361	NaN	1.098349
	0.936361	NaN	1.132111
	0.895245	NaN	1.132111
	0.895246	NaN	1.098349
	0.806753	NaN	1.098349
	0.806753	NaN	1.098349
	0.806753	NaN	1.132111
	0.806753	NaN	1.098349
	0.758645	NaN	1.132112
	0.707274	NaN	1.132112
	0.707274	NaN	1.098349
	0.707274	NaN	1.098349
	0.707274	NaN	1.098349
	0.707274	NaN	1.132112
	0.651866	NaN	1.132112
	0.651866	NaN	1.132112
	0.651866	NaN	1.132112
	0.651866	NaN	1.063514
	0.591289	NaN	1.098349
	0.651868	NaN	1.063514
	0.651868	NaN	1.027500
	0.651868	NaN	1.063515
	0.651868	NaN	1.063515
	0.651868	NaN	1.098349
	0.591291	NaN	1.063515
	0.651868	NaN	1.063515
	0.591291	NaN	1.063515
	0.591291	NaN	1.063515
	0.591291	NaN	1.063515
	0.591291	NaN	1.063515
	0.591291	NaN	1.027501
	0.591291	NaN	1.027501
	0.651870	NaN	1.027501
	0.651868	NaN	0.990177
	0.707277	NaN	0.990177
	0.651868	NaN	0.990177
	0.707277	NaN	0.990177
	0.758649	NaN	0.951391
	0.758649	NaN	0.951391
	0.758649	NaN	0.910955
	0.758649	NaN	0.910955
	0.806756	NaN	0.910955
	0.806756	NaN	0.868638
	0.852151	NaN	0.824151
	0.852151	NaN	0.868638
	0.895248	NaN	0.777122
	0.895248	NaN	0.777122
	0.895248	NaN	0.727057
	0.895248	NaN	0.727057
	0.936363	NaN	0.673280
	0.936363	NaN	0.673280
	0.936363	NaN	0.614816
	0.936361	NaN	0.476849
	0.936361	NaN	0.476849
	0.975746	NaN	0.476849
	0.975746	NaN	0.389973
	0.975746	NaN	0.389974
	1.013601	NaN	0.277078
	0.975744	NaN	0.038287
	0.975744	NaN	NaN
	1.013599	NaN	NaN
	0.975743	NaN	NaN
	0.975743	NaN	NaN
	1.013598	NaN	NaN
	1.013598	NaN	NaN
	1.013598	NaN	NaN
	1.050090	0.273667	NaN
	1.050090	0.273667	NaN
	1.050090	0.273667	NaN
	1.085355	0.387561	NaN
	1.085355	0.474882	NaN
	1.085355	0.474882	NaN
	1.119510	0.474882	NaN
	1.085354	0.474882	NaN
	1.152653	0.474882	NaN
	1.119508	0.548473	NaN
	1.119508	0.548473	NaN
	1.119508	0.613296	NaN
	1.119508	0.613296	NaN
	1.119508	0.613296	NaN
	1.152652	0.613296	NaN
	1.119507	0.613296	NaN
	1.152652	0.613296	NaN
	1.152652	0.613296	NaN
	1.152652	0.613296	NaN
	1.152652	0.671892	NaN
	1.152652	0.671894	NaN
	1.119507	0.725775	NaN
	1.119507	0.725775	NaN
	1.119507	0.775922	NaN
	1.119507	0.775922	NaN
	1.119507	0.775922	NaN
	1.152651	0.775922	NaN
	1.152651	0.775922	NaN
	1.119507	0.725773	NaN
	1.119507	0.725773	NaN
	1.119507	0.725773	NaN
	1.119507	0.725773	NaN
	1.085351	0.775922	NaN
	1.050086	0.775922	NaN
	1.050086	0.775922	NaN
	1.085351	0.775922	NaN
	1.050086	0.823020	NaN
	1.050086	0.823020	NaN
	1.013593	0.775922	NaN
	1.013593	0.775921	NaN
	1.013593	0.725773	NaN
	0.975738	0.775921	NaN
	0.975738	0.775921	NaN
	0.936353	0.775921	NaN
	0.936353	0.775921	NaN
	0.852139	0.775921	NaN
	0.852139	0.775921	NaN
	0.852139	0.775921	NaN
	0.806743	0.775921	NaN
	0.806743	0.775921	NaN
	0.806743	0.775919	NaN
	0.806743	0.775919	NaN
	0.707261	0.775919	NaN
	0.707261	0.775919	NaN
	0.651852	0.775919	NaN
	0.707263	0.775919	NaN
	0.591274	0.823017	NaN
	0.591274	0.823017	NaN
	0.523734	0.775917	NaN
	0.523734	0.725769	NaN
	0.446084	0.725769	NaN
	0.523737	0.775917	NaN
	0.523737	0.725767	NaN
	0.446087	0.671886	NaN
	0.446087	0.613288	NaN
	0.446087	0.671884	NaN
	0.351691	0.671884	NaN
	0.446090	0.613288	NaN
	0.446090	0.613288	NaN
	0.351695	0.613286	NaN
	0.219960	0.613286	NaN
	0.219960	0.613286	NaN
	0.351698	0.613286	NaN
	0.219966	0.613286	NaN
	0.219966	0.548461	NaN
	0.219966	0.548461	0.038374
	0.219966	0.548461	0.277092
	NaN	0.548461	0.277090
	NaN	0.474868	0.389983
	0.219971	0.387547	0.277090
	NaN	0.273648	0.389981
	NaN	0.273648	0.476857
	NaN	0.273648	0.550181
	NaN	0.273648	0.550181
	NaN	0.273648	0.550181
	NaN	NaN	0.614822
	NaN	NaN	0.614822
	NaN	NaN	0.673285
	NaN	NaN	0.673285
	0.219983	NaN	0.673285
	NaN	NaN	0.727062
	NaN	NaN	0.727062
	NaN	NaN	0.727062
	NaN	NaN	0.777126
	NaN	NaN	0.777126
	0.219989	NaN	0.824156
	NaN	NaN	0.824155
	NaN	NaN	0.824155
	NaN	NaN	0.824155
	NaN	NaN	0.824155
	NaN	NaN	0.868641
	NaN	NaN	0.868641
	NaN	NaN	0.868641
	NaN	NaN	0.868641
	NaN	NaN	0.868641
	0.219989	NaN	0.868641
	NaN	NaN	0.951395
	NaN	NaN	0.910958
	0.219989	NaN	0.910958
	NaN	NaN	0.910958
	0.219989	NaN	0.951394
	0.219989	NaN	0.951394
	0.219989	NaN	0.951394
	0.219989	NaN	0.951394
	0.219989	NaN	0.951394
	NaN	NaN	0.951394
	0.351713	NaN	0.951394
	0.351713	NaN	0.951394
	0.351713	NaN	0.990180
	0.446104	NaN	0.910957
	0.351709	NaN	0.951393
	0.219983	NaN	0.910957
	0.351709	NaN	0.951393
	0.351709	NaN	0.951394
	0.351709	NaN	0.951394
	0.351709	NaN	0.990180
	0.446101	NaN	0.951394
	0.446101	NaN	0.951394
	0.446101	NaN	0.910957
	0.446101	NaN	0.910957
	0.446101	NaN	0.951394
	0.523749	NaN	0.910957
	0.523749	NaN	0.910957
	0.523749	NaN	0.910957
	0.523749	NaN	0.868641
	0.523749	NaN	0.868641
	0.523749	NaN	0.868641
	0.523749	NaN	0.868641
	0.523749	NaN	0.824154
	0.523749	NaN	0.824154
	0.523749	NaN	0.824154
	0.523749	NaN	0.777125
	0.523749	NaN	0.777125
	0.523749	NaN	0.777125
	0.523749	NaN	0.777125
	0.523749	NaN	0.727061
	0.523747	NaN	0.727061
	0.523747	NaN	0.673283
	0.523747	NaN	0.614820
	0.523747	NaN	0.673284
	0.523747	NaN	0.673284
	0.591284	NaN	0.614821
	0.591284	NaN	0.614821
	0.591284	NaN	0.550179
	0.651862	NaN	0.476855
	0.651862	NaN	0.476855
	0.651862	NaN	0.476855
	0.651862	NaN	0.389980
	0.651862	0.273653	0.389980
	0.707270	NaN	0.389980
	0.707270	0.273653	0.389980
	0.707270	0.273653	0.389980
	0.707270	0.387551	0.389980
	0.707270	0.387551	0.389980
	0.707270	0.387551	0.277088
	0.707270	0.387551	0.277088
	0.758642	0.474874	0.277088
	0.758642	0.474874	0.038345
	0.758642	0.474874	0.038359
	0.758642	0.474874	0.038359
	0.806749	0.474874	0.038359
	0.806749	0.548466	0.038359
	0.806749	0.474874	NaN
	0.852147	0.548466	0.038359
	0.852147	0.548466	NaN
	0.895243	0.548466	0.038359
	0.895243	0.548466	NaN
	0.895243	0.548466	0.038359
	0.852145	0.548466	NaN
	0.852145	0.548466	NaN
	0.852145	0.548466	NaN
	0.895242	0.548466	NaN
	0.895243	0.474877	NaN
	0.936359	0.548466	NaN
	0.895242	0.548466	NaN
	0.936359	0.474877	NaN
	0.895242	0.474877	NaN
	0.895242	0.474877	NaN
	0.895242	0.474877	NaN
	0.936357	0.474877	NaN
	0.936357	0.474877	NaN
	0.936357	0.474877	NaN
	0.936357	0.474877	NaN
	0.975742	0.474877	NaN
	0.975742	0.474877	NaN
	0.975742	0.474877	NaN
	0.975742	0.474877	NaN
	0.975742	0.474877	NaN
	0.975740	0.474877	NaN
	0.936356	0.474877	NaN
	0.975740	0.474877	NaN
	0.975740	0.474877	NaN
	0.975740	0.474877	NaN
	0.975740	0.474877	NaN
	0.975740	0.387554	NaN
	0.975740	0.387554	NaN
	0.975740	0.474877	NaN
	1.013596	0.273662	NaN
	1.013596	0.273662	NaN
	1.013596	0.273662	NaN
	1.013596	0.273662	NaN
	1.013596	0.273662	NaN
	1.013596	0.273662	NaN
	1.013596	0.273662	NaN
	1.013596	NaN	NaN
	1.013596	0.273662	NaN
	1.013596	NaN	NaN
	1.013596	NaN	NaN
	NaN	0.000000	0.000000
	0.651862	NaN	0.038316
	0.651862	NaN	0.038316
	0.651862	NaN	0.277084
	0.651862	NaN	0.038316
	0.651862	NaN	0.038316
	0.651862	NaN	0.038316
	0.651862	NaN	0.038316
	0.651862	NaN	0.038316
	0.651862	NaN	0.038316
	0.651862	NaN	0.038316
	0.651862	NaN	0.038316
	0.651862	NaN	0.038316
	0.651862	NaN	0.038316
	0.651862	0.273653	NaN
	0.651862	0.273653	0.038316
	0.651862	NaN	0.038316
	0.651862	NaN	0.038316
	0.651862	NaN	NaN
	0.651862	0.273653	0.038316
	0.651862	NaN	0.038316
	0.651862	NaN	0.038316
	0.651862	NaN	0.038316
	0.651862	NaN	0.038316
	0.707270	NaN	0.038316
	0.651862	NaN	0.038330
	0.707270	NaN	0.038316
	0.651862	NaN	NaN
	0.651862	NaN	0.038316
	0.651862	NaN	0.038316
	0.651862	NaN	0.038316
	0.651862	NaN	NaN
	0.651862	NaN	0.038316
	0.651862	NaN	NaN
	0.651862	NaN	0.038316
	0.707270	0.273658	NaN
	0.707270	NaN	0.038316
	0.707270	NaN	NaN
	0.707270	NaN	NaN
	0.707270	NaN	NaN
	0.707270	NaN	0.038316
	0.707270	NaN	0.038316
	0.707270	NaN	NaN
	0.707270	NaN	NaN
	0.707270	0.273658	NaN
	0.707270	NaN	NaN
	0.707270	NaN	0.038316
	0.707270	0.273658	NaN
	0.707270	0.273658	NaN
	0.707270	NaN	NaN
	0.707270	NaN	NaN
	0.758644	0.273658	NaN
	0.707270	NaN	NaN
	0.707270	NaN	NaN
	0.707270	NaN	NaN
	0.707270	NaN	NaN
	0.758642	0.273658	0.038316
	0.758642	NaN	NaN
	0.806751	NaN	NaN
	0.758642	0.273658	NaN
	0.806751	NaN	NaN
	0.806751	NaN	NaN
	0.758642	0.273658	NaN
	0.758642	0.273658	NaN
	0.806749	0.273658	NaN
	0.806749	0.273658	NaN
	0.806749	NaN	NaN
	0.806749	0.273658	NaN
	0.806749	0.273658	NaN
	0.852147	0.273658	NaN
	0.806749	0.273658	NaN
	0.852147	0.273658	0.038316
	0.806749	0.387554	NaN
	0.806749	0.273658	NaN
	0.806749	0.273662	NaN
	0.806749	0.273662	0.038316
	0.806749	0.273662	NaN
	0.806749	0.273662	NaN
	0.806749	0.273662	NaN
	0.806749	NaN	NaN
	0.806749	0.273662	NaN
	0.806749	0.273662	NaN
	0.852145	NaN	NaN
	0.852145	0.273662	NaN
	0.852147	NaN	NaN
	0.852145	0.273662	NaN
	0.852145	0.273662	NaN
	0.895243	NaN	NaN
	0.852145	0.273662	NaN
	0.895243	0.273662	NaN
	0.895243	0.273662	NaN
	0.895243	0.273662	NaN
	0.852145	NaN	NaN
	0.852145	NaN	NaN
	0.895243	0.273662	NaN
	0.895243	NaN	NaN
	0.895243	0.273662	NaN
	0.895243	0.273662	NaN
	0.895243	0.273662	NaN
	0.895243	0.273662	NaN
	0.936359	0.273662	NaN
	0.895243	NaN	NaN
	0.936359	0.273662	0.038301
	0.895243	NaN	NaN
	0.936359	NaN	NaN
	0.936359	NaN	NaN
	0.936359	NaN	0.038301
	0.936359	NaN	0.038301
	0.936359	NaN	0.038301
	0.936359	0.273662	0.038301
	0.936359	NaN	NaN
	0.895243	NaN	0.038301
	0.936359	NaN	0.038301
	0.936359	NaN	NaN
	0.936359	NaN	0.038301
	0.936359	NaN	0.038301
	0.936359	NaN	0.038301
	0.936359	NaN	0.038301
	0.936359	NaN	0.038287
	0.936359	NaN	0.038301
	0.936359	NaN	0.277080
	0.936359	NaN	NaN
	0.936359	NaN	0.038301
	0.936359	NaN	NaN
	0.936359	NaN	NaN
	0.936359	NaN	0.038301
	0.936359	NaN	0.038287
	0.936359	NaN	NaN
	0.936359	NaN	0.277080
	0.936359	NaN	0.277080
	0.936359	NaN	0.277080
	0.936359	NaN	0.277080
	0.936359	NaN	0.038301
	0.936359	NaN	0.038287
	0.936359	NaN	0.038287
	0.936359	NaN	0.277080
	0.936359	NaN	0.277080
	0.936359	NaN	0.277080
	0.936359	NaN	0.038287
	0.936359	NaN	0.038287
	0.975744	NaN	0.038287
	0.936359	NaN	0.277080
	0.975744	NaN	0.277080
	0.936359	NaN	0.277080
	0.936359	NaN	0.277080
	0.936359	NaN	0.277080
	0.936359	NaN	0.277080
	0.936359	NaN	0.038287
	0.936359	NaN	0.277080
	0.936359	NaN	0.277080
	0.936359	NaN	0.038287
	0.936359	NaN	0.038287
	0.975744	NaN	0.038287
	0.936359	NaN	0.038287
	0.975744	NaN	0.277080
	0.975744	NaN	0.038287
	0.936359	NaN	0.277080
	0.936359	NaN	0.277080
	0.975744	NaN	0.277080
	0.975744	NaN	0.277080
	0.936359	NaN	0.277080
	0.975744	NaN	0.038287
	0.975744	NaN	0.277080
	0.975744	NaN	0.277080
	0.975744	NaN	0.277080
	0.975744	NaN	0.277080
	0.975744	NaN	0.277080
	0.975744	NaN	0.277080
	0.975744	NaN	0.277080
	0.975744	NaN	0.277080
	0.975744	NaN	0.277080
	0.975744	NaN	0.277080
	0.975744	NaN	0.277080
	0.975744	NaN	0.277080
	0.975744	NaN	0.277080
	0.975744	NaN	0.277080
	0.975744	NaN	0.038287
	0.975744	NaN	0.277080
	0.975744	NaN	0.277080
	0.975744	NaN	0.277080
	0.975744	NaN	0.277080
	0.975744	NaN	0.277080
	0.936359	NaN	0.277080
	0.975744	NaN	0.038301
	0.975744	NaN	0.277080
	0.975744	NaN	0.277080
	0.975744	NaN	0.277080
	0.975744	NaN	0.277080
	0.975744	NaN	0.038301
	0.895243	NaN	0.038301
	0.975744	NaN	0.038301
	0.975744	NaN	0.038301
	0.975744	NaN	0.277080
	0.936359	NaN	0.038301
	0.975744	NaN	0.038301
	0.975744	NaN	0.277080
	0.936359	NaN	0.038301
	0.936359	NaN	0.038301
	0.975744	NaN	0.038301
	0.936359	NaN	0.038301
	0.936360	NaN	0.038301
	0.936359	NaN	0.038301
	0.936359	NaN	0.277082
	0.936360	NaN	0.038301
	0.936360	NaN	0.038301
	0.895243	NaN	0.038301
	0.895243	NaN	0.038301
	0.936359	NaN	0.038301
	0.895243	NaN	NaN
	0.895243	NaN	NaN
	0.975744	NaN	0.038301
	0.895243	NaN	0.038301
	0.895243	NaN	NaN
	0.936359	NaN	NaN
	0.895243	NaN	NaN
	0.895243	NaN	NaN
	0.936359	NaN	NaN
	0.895243	NaN	NaN
	0.895243	NaN	NaN
	0.936359	NaN	NaN
	0.895243	NaN	NaN
	0.895243	NaN	NaN
	0.936359	NaN	NaN
	0.852145	NaN	0.038316
	0.895243	NaN	NaN
	0.895243	NaN	0.038316
	0.852145	NaN	0.038316
	0.895243	NaN	NaN
	0.852145	NaN	NaN
	0.852145	NaN	0.038316
	0.895243	NaN	NaN
	0.852145	NaN	NaN
	0.852145	NaN	NaN
	0.852145	NaN	NaN
	0.895243	0.273662	0.038316
	0.852145	NaN	0.038316
	0.806749	NaN	0.038316
	0.895243	NaN	NaN
	0.852145	NaN	NaN
	0.852145	0.273662	NaN
	0.806749	0.273662	0.038316
	0.852145	NaN	0.038316
	0.852145	0.273662	NaN
	0.806749	0.273662	NaN
	0.806749	NaN	NaN
	0.806749	0.273662	0.038316
	0.806749	NaN	NaN
	0.806749	NaN	0.038316
	0.806749	NaN	NaN
	0.806749	NaN	0.038316
	0.806749	0.273662	NaN
	0.806749	NaN	NaN
	0.806749	NaN	NaN
	0.806749	NaN	NaN
	0.806749	NaN	NaN
	0.758640	NaN	NaN
	0.806749	NaN	NaN
	0.806749	NaN	NaN
	0.806749	NaN	NaN
	0.806749	NaN	NaN
	0.806749	NaN	NaN
	0.806749	NaN	NaN
	0.758642	NaN	NaN
	0.806749	NaN	NaN
	0.806749	NaN	NaN
	0.758642	0.273658	NaN
	0.758642	NaN	NaN
	0.806749	0.273658	NaN
	0.758642	NaN	NaN
	0.758642	NaN	0.038316
	0.707268	NaN	NaN
	0.758642	NaN	NaN
	0.758642	NaN	NaN
	0.707268	NaN	0.038316
	0.758640	NaN	NaN
	0.707268	NaN	NaN
	0.806749	NaN	NaN
	0.707268	NaN	NaN
	0.707268	NaN	0.038316
	0.758642	NaN	0.038316
	0.707268	NaN	0.038316
	0.707268	NaN	0.038316
	0.707268	NaN	0.038316
	0.651860	NaN	NaN
	0.707268	NaN	0.038316
	0.707268	NaN	NaN
	0.651860	NaN	NaN
	0.758642	NaN	0.038316
	0.707268	NaN	0.038316
	0.651860	NaN	0.038316
	0.651860	NaN	0.038316
	0.651860	NaN	0.038316
	0.651860	NaN	NaN
	0.707268	0.273658	0.038316
	0.707268	NaN	0.038316
	0.707268	NaN	NaN
	0.651860	NaN	NaN
	0.651860	NaN	0.038316
	0.651860	NaN	0.038316
	0.651860	NaN	0.038316
	0.651860	NaN	0.038316
	0.651860	NaN	0.038316
	0.651860	NaN	0.038316
	0.651860	NaN	0.038316
	0.651860	NaN	0.038316
	0.651860	NaN	0.038316
	0.707270	NaN	0.038316
	0.651860	NaN	0.038316
	0.651860	NaN	0.038316
	0.651860	NaN	0.038316
	0.651860	NaN	0.277084
	0.651860	NaN	0.277084
	0.651860	NaN	0.277084
	0.651860	NaN	0.038316
	0.651860	NaN	0.038316
	0.651860	NaN	0.038316
	0.651860	NaN	0.038316
	0.651860	NaN	0.038316
	0.651860	0.273658	0.038316
	0.651860	NaN	0.038316
	0.651860	NaN	0.038316
	0.651860	NaN	0.277084
	0.651860	NaN	0.277084
	0.651860	NaN	0.277084
	0.651860	NaN	0.038316
	0.651860	NaN	0.038316
	0.651860	NaN	0.038316
	0.651860	NaN	0.038316
	0.651860	NaN	0.038316
	0.651860	NaN	0.038316
	0.651860	NaN	0.038316
	0.651860	NaN	0.038316
	0.651860	NaN	0.038316
	0.651860	NaN	0.038316
	0.651860	NaN	0.038316
	0.651860	NaN	NaN
	0.651860	NaN	0.038316
	0.651860	NaN	0.038316
	0.651860	NaN	0.038316
	0.651860	NaN	0.038316
	0.707270	NaN	0.038316
	0.651860	NaN	NaN
	0.651860	NaN	0.038316
	0.651860	NaN	0.038316
	0.651860	NaN	0.038316
	0.651860	NaN	0.038316
	0.651860	0.273658	0.038316
	0.651860	NaN	0.038316
	0.651860	NaN	0.038316
	0.758642	NaN	0.038316
	0.707268	NaN	0.038316
	0.651860	NaN	0.038316
	0.758642	NaN	0.038316
	0.758642	NaN	0.038316
	0.758642	NaN	0.038316
	0.758642	NaN	0.038316
	0.707268	NaN	0.038316
	0.758642	NaN	0.038316
	0.758642	NaN	NaN
	0.758642	NaN	0.038316
	0.758642	NaN	0.038316
	0.758642	NaN	0.038316
	0.758642	NaN	NaN
	0.758642	NaN	NaN
	0.758642	NaN	NaN
	0.758642	NaN	0.038316
	0.758642	NaN	0.038316
	0.758642	NaN	0.038316
	0.758642	NaN	0.038316
	0.806749	NaN	NaN
	0.806749	NaN	0.038316
	0.806749	NaN	0.038316
	0.806749	NaN	NaN
	0.806749	NaN	0.038316
	0.806749	NaN	NaN
	0.806749	0.273662	NaN
	0.806749	NaN	0.038316
	0.806749	NaN	0.038316
	0.806749	NaN	0.038316
	0.806749	NaN	NaN
	0.806749	NaN	0.038316
	0.806749	NaN	0.038316
	0.806749	NaN	0.038316
	0.806749	NaN	0.038316
	0.806749	NaN	0.038316
	0.806749	NaN	0.038316
	0.806749	NaN	0.038316
	0.806749	NaN	0.038316
	0.806749	NaN	NaN
	0.806749	NaN	0.038316
	0.852147	NaN	0.038316
	0.806749	NaN	0.038316
	0.806749	NaN	0.038316
	0.806749	NaN	0.038316
	0.852145	NaN	0.038316
	0.806749	NaN	0.038316
	0.852145	NaN	0.038316
	0.806749	NaN	0.038316
	0.895243	NaN	0.038316
	0.852147	NaN	0.038316
	0.895243	NaN	0.038316
	0.895243	NaN	0.038316
	0.895243	NaN	0.038316
	0.895243	NaN	0.038316
	0.895243	NaN	0.038316
	0.895243	NaN	0.038316
	0.895243	NaN	0.038316
	0.895243	NaN	0.038316
	0.895243	NaN	0.038316
	0.852147	NaN	0.038316
	0.895243	NaN	0.038316
	0.895243	NaN	0.038316
	0.895243	NaN	0.038316
	0.895243	NaN	0.038316
	0.895243	NaN	0.038316
	0.895243	NaN	NaN
	0.895243	NaN	0.038316
	0.895243	NaN	0.038316
	0.895243	NaN	0.038316
	0.895243	NaN	0.038316
	0.895243	NaN	0.038316
	0.936359	NaN	0.038316
	0.895243	NaN	0.038316
	0.895243	NaN	NaN
	0.895243	0.273662	NaN
	0.895243	NaN	0.038316
	0.895243	NaN	0.277082
	0.895243	NaN	0.277082
	0.895243	NaN	0.277082
	0.895243	NaN	0.277082
	0.895243	NaN	0.277082
	0.936359	NaN	0.277082
	0.895243	NaN	0.277082
	0.975744	NaN	0.038301
	0.895243	NaN	0.038301
	0.895243	NaN	0.277082
	0.895243	NaN	0.277082
	0.895243	NaN	0.277082
	0.936359	NaN	0.038316
	0.895243	NaN	0.038316
	0.895243	NaN	0.277082
	0.895243	NaN	0.277082
	0.895243	NaN	0.038301
	0.895243	NaN	0.038301
	0.895243	NaN	0.038301
	0.895243	NaN	0.038301
	0.895243	NaN	0.038301
	0.895243	NaN	0.038301
	0.895243	NaN	0.038301
	0.895243	NaN	0.277082
	0.936360	NaN	0.038301
	0.975744	NaN	0.277082
	0.936360	NaN	0.038301
	0.975744	NaN	0.277080
	0.936359	NaN	0.389976
	0.936359	NaN	0.389976
	0.936359	NaN	0.277082
	0.936359	NaN	0.277082
	0.895243	NaN	0.277082
	0.936360	NaN	0.277082
	0.936360	NaN	0.277082
	0.975744	NaN	0.277082
	0.936359	NaN	0.277082
	0.936359	NaN	0.277082
	0.895243	NaN	0.277082
	0.895243	NaN	0.277082
	0.936359	NaN	0.277082
	0.895243	NaN	0.038301
	0.936359	NaN	0.277082
	0.895243	NaN	0.277082
	0.895243	NaN	0.038301
	0.936359	NaN	0.277082
	0.895243	NaN	0.277082
	0.936359	NaN	0.277082
	0.936359	NaN	0.277082
	0.936359	NaN	0.038301
	0.936359	NaN	0.038301
	0.895243	NaN	0.038301
	0.895243	NaN	0.277082
	0.895243	NaN	0.038301
	0.895243	NaN	0.277082
	0.936359	NaN	0.277082
	0.895243	NaN	0.277082
	0.975744	NaN	0.277082
	0.936359	NaN	0.277082
	0.936359	NaN	0.277082
	0.936359	NaN	0.277082
	0.936360	NaN	0.277082
	0.936360	NaN	0.277082
	0.895243	NaN	0.038301
	0.936360	NaN	0.277082
	0.975744	NaN	0.038301
	0.936359	NaN	0.277082
	0.936359	NaN	0.277082
	0.936359	NaN	0.277082
	0.936359	NaN	0.038301
	0.936360	NaN	0.038316
	0.936359	NaN	0.277082
	0.936360	NaN	0.277082
	0.936359	NaN	0.277082
	0.936360	NaN	0.277082
	0.936359	NaN	0.277082
	0.936359	NaN	0.038301
	0.936359	NaN	0.277082
	0.895243	NaN	0.277082
	0.895243	NaN	0.038301
	0.895243	NaN	0.277082
	0.895243	NaN	0.038301
	0.895243	NaN	0.277082
	0.895243	NaN	0.277082
	0.895243	NaN	0.277082
	0.936359	NaN	0.277082
	0.895243	NaN	0.277082
	0.895243	NaN	0.038316
	0.895243	NaN	0.277082
	0.895243	NaN	0.038316
	0.895243	NaN	0.277082
	0.895243	NaN	0.277082
	0.895243	NaN	0.277082
	0.895243	NaN	0.277082
	0.895243	NaN	0.038316
	0.895243	NaN	0.038316
	0.895243	NaN	0.038316
	0.895243	NaN	0.038316
	0.895243	NaN	0.277082
	0.852145	NaN	0.038316
	0.852145	NaN	0.038316
	0.895242	NaN	0.038316
	0.895243	NaN	0.038316
	0.895243	NaN	0.038316
	0.895243	NaN	0.038316
	0.895243	NaN	0.038316
	0.895243	NaN	0.038316
	0.895243	NaN	0.038316
	0.895243	NaN	0.038316
	0.852145	NaN	0.038316
	0.852145	NaN	0.038316
	0.852145	NaN	0.038316
	0.895243	NaN	0.038316
	0.852145	NaN	0.038316
	0.895243	NaN	0.038316
	0.852145	NaN	0.038316
	0.852145	NaN	0.038316
	0.852145	NaN	0.038316
	0.852145	NaN	0.038316
	0.852145	NaN	0.038316
	0.852145	NaN	0.038316
	0.852145	NaN	0.038316
	0.852145	NaN	0.038316
	0.852145	NaN	0.038316
	0.806749	NaN	0.038316
	0.852145	NaN	0.038316
	0.852145	NaN	0.038316
	0.852145	NaN	0.038316
	0.806749	NaN	0.038316
	0.806749	NaN	0.038316
	0.806749	NaN	0.038316
	0.806749	NaN	0.038316
	0.806749	NaN	0.038316
	0.806749	NaN	0.038316
	0.852145	NaN	0.038316
	0.806749	NaN	0.038316
	0.806749	NaN	0.038316
	0.806749	NaN	0.038316
	0.806749	NaN	0.038316
	0.806749	NaN	0.038316
	0.806749	NaN	NaN
	0.806749	NaN	NaN
	0.806749	NaN	0.038316
	0.806749	NaN	0.038316
	0.806749	NaN	0.038316
	0.806749	NaN	0.038316
	0.806749	NaN	0.038316
	0.806749	NaN	NaN
	0.806749	NaN	NaN
	0.806749	NaN	NaN
	0.806749	NaN	0.038316
	0.758640	NaN	0.038316
	0.806749	NaN	0.038316
	0.758640	NaN	0.038316
	0.806749	NaN	0.038316
	0.806749	NaN	0.038316
	0.806749	NaN	0.038316
	0.758640	NaN	0.038316
	0.806749	NaN	0.038316
	0.806749	NaN	0.038316
	0.707268	NaN	0.038316
	0.758640	NaN	0.038316
	0.758640	NaN	NaN
	0.707268	NaN	0.038316
	0.758640	NaN	NaN
	0.758640	NaN	0.038316
	0.707268	NaN	0.038316
	0.707268	NaN	0.277084
	0.707268	NaN	NaN
	0.707268	NaN	0.277084
	0.707268	NaN	NaN
	0.707268	NaN	0.038316
	0.758642	NaN	NaN
	0.707268	NaN	0.277084
	0.707268	NaN	0.277084
	0.758640	NaN	0.277084
	0.707268	NaN	0.038330
	0.707268	NaN	0.277084
	0.707268	NaN	0.277084
	0.758642	NaN	0.277084
	0.707268	NaN	0.038316
	0.707268	NaN	0.277084
	0.707268	NaN	0.277084
	0.707268	NaN	0.038330
	0.707268	NaN	0.038316
	0.707268	NaN	0.038316
	0.758642	NaN	0.277084
	0.707268	NaN	NaN
	0.758642	NaN	0.038316
	0.707268	NaN	0.038316
	0.707268	NaN	0.038316
	0.707268	NaN	0.038316
	0.758642	NaN	0.038330
	0.707268	NaN	0.038316
	0.707268	NaN	0.277084
	0.707268	NaN	0.277084
	0.707268	NaN	0.038316
	0.707268	NaN	NaN
	0.707268	NaN	NaN
	0.707268	NaN	0.277084
	0.707268	NaN	0.277084
	0.758640	NaN	0.277084
	0.707268	NaN	0.038330
	0.707268	NaN	0.038316
	0.707268	NaN	0.277084
	0.707268	NaN	0.277084
	0.707268	NaN	0.277084
	0.707268	NaN	0.277084
	0.707268	NaN	0.038316
	0.707268	NaN	0.277084
	0.707268	NaN	0.277084
	0.707268	NaN	0.277084
	0.707268	NaN	0.277084
	0.707268	NaN	NaN
	0.758642	NaN	0.038316
	0.758642	NaN	NaN
	0.707268	NaN	NaN
	0.707268	NaN	0.038316
	0.707268	NaN	NaN
	0.707268	NaN	0.038316
	0.707268	NaN	0.038330
	0.707268	NaN	NaN
	0.707268	NaN	0.038316
	0.707268	NaN	0.038316
	0.758642	NaN	0.038316
	0.707268	NaN	0.038316
	0.707268	NaN	0.038330
	0.651860	NaN	0.038316
	0.707268	NaN	0.038316
	0.758642	NaN	0.038316
	0.707268	NaN	0.038316
	0.707268	NaN	0.038316
	0.707268	NaN	0.038316
	0.758642	NaN	NaN
	0.758642	NaN	0.038316
	0.758642	NaN	0.038330
	0.758642	NaN	0.277084
	0.707268	NaN	0.277084
	0.707268	NaN	0.038330
	0.707268	NaN	0.277084
	0.758642	NaN	0.277084
	0.707268	NaN	0.038316
	0.707268	NaN	0.277084
	0.758642	NaN	0.277084
	0.758640	NaN	0.277084
	0.758642	NaN	0.038316
	0.707268	NaN	0.038316
	0.806749	0.273658	0.277084
	0.806749	NaN	0.277084
	0.758640	NaN	0.038330
	0.806749	NaN	0.038316
	0.806749	NaN	0.038316
	0.806749	NaN	0.038316
	0.806749	NaN	0.038316
	0.806749	NaN	0.038316
	0.806749	NaN	0.277084
	0.758642	NaN	0.038316
	0.806749	NaN	0.038316
	0.806749	NaN	NaN
	0.806749	NaN	0.038316
	0.806749	NaN	0.038316
	0.806749	NaN	0.038316
	0.806749	NaN	0.038316
	0.806749	NaN	0.038316
	0.806749	NaN	0.038316
	0.852147	NaN	0.038316
	0.806749	NaN	0.277084
	0.806749	NaN	0.038316
	0.806749	NaN	0.038316
	0.806749	NaN	0.038316
	0.806749	NaN	0.038316
	0.806749	NaN	0.038316
	0.806749	NaN	0.038316
	0.806749	NaN	0.038316
	0.806749	NaN	0.038316
	0.806749	NaN	0.038316
	0.852145	NaN	0.038316
	0.806749	NaN	0.038316
	0.852147	NaN	0.038316
	0.852145	NaN	0.277084
	0.852145	NaN	0.038316
	0.806749	NaN	0.038316
	0.806749	NaN	0.038316
	0.806749	NaN	NaN
	0.806749	NaN	NaN
	0.806749	NaN	0.389977
	0.758642	NaN	0.038330
	0.707270	NaN	NaN
	0.651862	NaN	NaN
	0.351698	NaN	NaN
	NaN	0.474877	NaN
	NaN	0.548468	NaN
	NaN	0.671888	NaN
	0.351691	0.867564	NaN
	0.446087	0.989237	NaN
	0.651856	0.950412	0.476856
	0.852144	0.867562	0.550181
	1.013598	0.823016	0.476856
	1.119512	0.671886	0.277090
	1.184874	0.613290	NaN
	1.216239	0.775919	NaN
	1.246815	0.823019	NaN
	1.246816	0.867565	NaN
	1.276660	1.026598	NaN
	1.305822	1.062643	NaN
	1.362274	1.097506	NaN
	1.442815	1.097506	NaN
	1.543680	1.026598	NaN
	1.661170	0.989240	NaN
	1.705903	0.989240	NaN
	1.770884	0.909935	NaN
	1.792020	0.867568	NaN
	1.833563	0.775924	NaN
	1.833563	0.671896	NaN
	1.874185	0.613300	NaN
	1.894169	0.613302	NaN
	1.874185	0.613304	NaN
	1.874185	0.725783	NaN
	1.874184	0.671904	NaN
	1.874184	0.775934	NaN
	1.894168	0.775934	NaN
	1.874183	0.775936	NaN
	1.874183	0.775936	NaN
	1.894167	0.823035	NaN
	1.913942	0.725789	NaN
	1.933516	0.823035	NaN
	1.933516	0.725787	NaN
	1.952894	0.671907	NaN
	1.991083	0.548492	NaN
	2.009906	0.474904	NaN
	2.047031	0.474901	NaN
	2.101491	0.387584	NaN
	2.137026	0.273705	NaN
	2.154575	0.387584	0.038258
	2.171981	0.387584	0.038258
	2.206381	0.387584	0.277076
	2.223382	0.474898	0.277076
	2.206382	0.474898	0.277076
	2.223382	0.387581	0.277076
	2.206381	0.387577	0.277076
	2.206381	0.387577	0.277078
	2.154575	0.387577	NaN
	2.101491	0.474893	NaN
	2.047031	0.474893	NaN
	1.972081	0.474893	0.550175
	1.874183	0.474893	0.727058
	1.792017	0.387574	0.824153
	1.683682	0.273686	0.727058
	1.567877	NaN	0.476850
	1.468674	NaN	0.038272
	1.334340	NaN	NaN
	1.184872	NaN	NaN
	1.050088	NaN	NaN
	0.895239	NaN	NaN
	0.707261	NaN	NaN
	0.523729	NaN	NaN
	0.351676	NaN	NaN
	NaN	NaN	NaN
	NaN	NaN	NaN
	NaN	NaN	NaN
	NaN	NaN	NaN
	NaN	NaN	NaN
	NaN	NaN	NaN
	NaN	NaN	NaN
	NaN	NaN	NaN
	NaN	NaN	NaN
	NaN	NaN	NaN
	NaN	NaN	NaN
	NaN	NaN	NaN
	NaN	NaN	NaN
	NaN	NaN	NaN
	NaN	NaN	NaN
	NaN	NaN	NaN
	NaN	NaN	NaN
	NaN	NaN	0.038228
	NaN	NaN	0.038228
	NaN	NaN	0.277072
	NaN	NaN	0.389968
	NaN	NaN	0.389968
	NaN	NaN	0.389968
	NaN	NaN	0.389968
	NaN	NaN	0.389968
	NaN	NaN	0.476846
	NaN	NaN	0.614814
	NaN	NaN	0.673277
	NaN	NaN	0.727055
	NaN	NaN	0.673277
	NaN	NaN	0.727055
	NaN	NaN	0.727055
	NaN	NaN	0.727055
	NaN	NaN	0.673278
	NaN	NaN	0.727055
	NaN	NaN	0.727055
	NaN	NaN	0.727055
	NaN	NaN	0.777121
	NaN	NaN	0.777121
	NaN	NaN	0.727056
	NaN	NaN	0.727056
	NaN	NaN	0.673278
	NaN	NaN	0.673279
	NaN	NaN	0.614814
	NaN	NaN	0.673279
	NaN	NaN	0.614815
	NaN	NaN	0.614815
	NaN	NaN	0.614815
	NaN	NaN	0.673280
	NaN	NaN	0.673280
	NaN	NaN	0.673280
	NaN	NaN	0.614816
	NaN	NaN	0.614816
	NaN	NaN	0.673280
	NaN	NaN	0.673280
	NaN	NaN	0.777123
	NaN	NaN	0.777124
	NaN	NaN	0.727058
	NaN	NaN	0.673281
	NaN	NaN	0.550176
	NaN	NaN	0.614818
	NaN	NaN	0.550177
	NaN	NaN	0.550177
	NaN	NaN	0.550177
	NaN	NaN	0.614819
	NaN	NaN	0.614819
	NaN	NaN	0.614819
	NaN	NaN	0.614819
	NaN	NaN	0.550178
	NaN	NaN	0.550178
	NaN	NaN	0.476854
	NaN	0.775911	0.476854
	NaN	0.950406	0.476854
	NaN	0.867556	0.550179
	NaN	0.613279	0.476855
	NaN	0.387541	0.476855
	NaN	0.387541	0.476855
	NaN	0.474866	0.550180
	NaN	0.613281	0.476856
	NaN	0.613281	0.476856
	NaN	0.613281	0.476856
	NaN	0.671881	0.277088
	NaN	0.548459	0.389981
	NaN	0.474868	0.277090
	NaN	0.474868	0.277090
	NaN	0.613283	0.277090
	NaN	0.613283	0.277090
	NaN	0.671883	0.277092
	NaN	0.613286	NaN
	NaN	0.671883	NaN
	NaN	0.725766	0.038388
	NaN	0.725766	0.277092
	NaN	0.725766	0.038388
	NaN	0.725766	0.038388
	NaN	0.725766	NaN
	NaN	0.775916	NaN
	NaN	0.775916	NaN
	NaN	0.775916	NaN
	0.219983	0.775916	NaN
	0.219983	0.823016	NaN
	0.351709	0.823016	NaN
	0.351709	0.823016	NaN
	0.351709	0.823016	NaN
	0.446104	0.823016	NaN
	0.446104	0.867562	NaN
	0.523752	0.867562	NaN
	0.523752	0.823016	NaN
	0.523754	0.867562	NaN
	0.591291	0.867562	NaN
	0.591291	0.867562	NaN
	0.591291	0.867562	NaN
	0.651870	0.867562	NaN
	0.651868	0.867562	NaN
	0.651870	0.867562	NaN
	0.707277	0.909931	NaN
	0.707277	0.909931	NaN
	0.707277	0.867562	NaN
	0.707277	0.909931	NaN
	0.707277	0.909931	NaN
	0.707277	0.909931	NaN
	0.707277	0.909931	NaN
	0.758649	0.909931	NaN
	0.758649	0.909931	NaN
	0.758649	0.909931	NaN
	0.758649	0.909931	NaN
	0.758649	0.950412	NaN
	0.806756	0.909931	NaN
	0.806756	0.909931	NaN
	0.806756	0.909931	NaN
	0.852153	0.909931	NaN
	0.852151	0.909931	NaN
	0.852151	0.909931	NaN
	0.895248	0.950411	NaN
	0.895248	0.909931	NaN
	0.895248	0.909931	NaN
	0.895248	0.909931	NaN
	0.895248	0.909931	NaN
	0.936364	0.909931	NaN
	0.895248	0.867562	NaN
	0.895248	0.909931	NaN
	0.895248	0.909931	NaN
	0.895248	0.909931	NaN
	0.895248	0.909931	NaN
	0.975748	0.867562	NaN
	0.975748	0.909931	NaN
	0.975748	0.909931	NaN
	0.975748	0.823017	NaN
	0.975748	0.867564	NaN
	1.013603	0.823017	NaN
	1.013603	0.867564	NaN
	0.975747	0.867564	NaN
	1.013603	0.823017	NaN
	1.013603	0.823017	NaN
	1.013603	0.775919	NaN
	1.050095	0.823017	NaN
	1.050095	0.823019	NaN
	1.013602	0.867564	NaN
	1.013602	0.823017	NaN
	1.050095	0.909932	NaN
	1.050093	0.867564	NaN
	1.085360	0.867564	NaN
	1.085360	0.867564	NaN
	1.085360	0.867564	NaN
	1.119514	0.867564	NaN
	1.085360	0.867564	NaN
	1.119514	0.823019	NaN
	1.085358	0.823019	NaN
	1.119514	0.823019	NaN
	1.119514	0.823019	NaN
	1.085358	0.823019	NaN
	1.152657	0.823019	NaN
	1.152657	0.775921	NaN
	1.184874	0.775921	NaN
	1.184874	0.775921	NaN
	1.184874	0.775921	NaN
	1.184874	0.775921	NaN
	1.216237	0.725771	NaN
	1.216237	0.775921	NaN
	1.216237	0.775921	NaN
	1.216237	0.775921	NaN
	1.216237	0.725773	NaN
	1.246812	0.671890	NaN
	1.276655	0.671890	NaN
	1.246812	0.671890	NaN
	1.246812	0.671890	NaN
	1.246812	0.387561	NaN
	1.305816	NaN	NaN
	1.305816	NaN	NaN
	1.305816	NaN	NaN
	1.305816	NaN	NaN
	1.305816	NaN	NaN
	1.305816	NaN	NaN
	1.276654	NaN	NaN
	1.305816	NaN	NaN
	1.334340	NaN	NaN
	1.334340	NaN	NaN
	1.305816	NaN	NaN
	1.334340	NaN	NaN
	1.334340	NaN	NaN
	1.334340	NaN	NaN
	1.334340	NaN	NaN
	1.334340	NaN	NaN
	1.334340	NaN	0.277076
	1.334340	NaN	0.476849
	1.334340	NaN	0.550174
	1.334340	NaN	0.550174
	1.334340	NaN	0.550174
	1.334340	NaN	0.476849
	1.334340	NaN	0.389971
	1.334340	NaN	0.277074
	1.334340	NaN	0.277074
	1.334340	NaN	0.038258
	1.334340	NaN	0.277074
	1.334340	NaN	0.277074
	1.362266	NaN	0.389970
	1.334340	NaN	0.550173
	1.334340	NaN	0.550173
	1.334340	NaN	0.614814
	1.334340	NaN	0.614814
	1.334340	NaN	0.614814
	1.334340	NaN	0.614814
	1.305816	NaN	0.614814
	1.305816	NaN	0.550172
	1.276654	NaN	0.476847
	1.276654	NaN	0.476847
	1.276654	NaN	0.550172
	1.276654	NaN	0.550172
	1.276654	NaN	0.673278
	1.276654	NaN	0.673278
	1.246812	NaN	0.777121
	1.246812	NaN	0.777121
	1.216236	NaN	0.727055
	1.246812	NaN	0.673277
	1.246812	NaN	0.727055
	1.184873	NaN	0.727055
	1.184873	NaN	0.614814
	1.184873	NaN	0.614814
	1.184873	NaN	0.673277
	1.184873	NaN	0.727055
	1.184873	NaN	0.777120
	1.184873	NaN	0.824150
	1.184873	NaN	0.777120
	1.184873	NaN	0.777120
	1.152656	NaN	0.777120
	1.152656	NaN	0.777120
	1.152656	NaN	0.777120
	1.119512	NaN	0.777120
	1.119512	NaN	0.777120
	1.085357	NaN	0.777120
	1.119512	NaN	0.777120
	1.085357	NaN	0.777120
	1.085357	NaN	0.777120
	1.085357	NaN	0.777120
	1.085357	NaN	0.824150
	1.085357	NaN	0.824150
	1.085357	NaN	0.824150
	1.050092	NaN	0.777120
	1.050092	NaN	0.824150
	1.050092	NaN	0.824150
	1.013599	NaN	0.824150
	1.013599	NaN	0.824150
	1.013599	NaN	0.777121
	1.050092	NaN	0.824150
	1.013601	NaN	0.824150
	1.013601	NaN	0.824150
	1.013601	NaN	0.824150
	1.013601	NaN	0.777121
	1.013601	NaN	0.777121
	1.013601	NaN	0.777121
	1.013601	NaN	0.777121
	1.013601	NaN	0.777121
	1.013601	NaN	0.777121
	1.013601	NaN	0.824151
	1.013601	NaN	0.824151
	1.013601	NaN	0.777122
	1.013601	NaN	0.777122
	1.013601	NaN	0.777122
	1.013601	NaN	0.777122
	1.050093	NaN	0.777122
	1.050093	NaN	0.777122
	1.013602	NaN	0.727057
	1.013601	NaN	0.727057
	1.013602	NaN	0.673280
	1.050093	NaN	0.673280
	1.013601	NaN	0.673280
	1.013602	NaN	0.673280
	1.013602	NaN	0.673280
	1.050093	NaN	0.673280
	1.050093	NaN	0.673280
	1.050093	NaN	0.614816
	1.050093	NaN	0.614817
	1.050093	NaN	0.550175
	1.050093	NaN	0.550175
	1.050093	NaN	0.550175
	1.050093	NaN	0.550175
	1.050093	NaN	0.476850
	1.050093	NaN	0.476850
	1.050093	NaN	0.389974
	1.050093	NaN	0.476851
	1.050093	NaN	0.389974
	1.085358	NaN	0.389974
	1.085358	NaN	0.277080
	1.085358	NaN	0.277080
	1.085358	NaN	0.389976
	1.085358	NaN	0.038301
	1.085358	NaN	0.277082
	1.119513	0.273667	0.038316
	1.119513	0.273667	0.038316
	1.119513	0.273667	0.038316
	1.119513	0.273667	NaN
	1.119513	0.273667	NaN
	1.119513	0.387561	NaN
	1.119513	0.387561	NaN
	1.119513	0.387561	NaN
	1.119513	0.387561	NaN
	1.119513	0.474882	NaN
	1.119513	0.474882	NaN
	1.119513	0.474882	NaN
	1.152656	0.474882	NaN
	1.152656	0.474882	NaN
	1.152656	0.474882	NaN
	1.152656	0.474882	NaN
	1.119513	0.474882	NaN
	1.152656	0.548473	NaN
	1.119512	0.548473	NaN
	1.152656	0.548473	NaN
	1.119512	0.548473	NaN
	1.119512	0.548473	NaN
	1.119512	0.613294	NaN
	1.119512	0.613294	NaN
	1.119512	0.613294	NaN
	1.085356	0.613294	NaN
	1.085357	0.613294	NaN
	1.085357	0.613294	NaN
	1.050091	0.613294	NaN
	1.085357	0.725773	NaN
	1.050091	0.725773	NaN
	1.050091	0.671892	NaN
	1.050091	0.725773	NaN
	1.050091	0.725773	NaN
	1.050091	0.725773	NaN
	1.013598	0.725773	NaN
	1.050091	0.671890	NaN
	0.975743	0.725773	NaN
	0.975743	0.725773	NaN
	0.975743	0.725773	NaN
	0.975743	0.725773	NaN
	0.895242	0.671890	NaN
	0.895242	0.671890	NaN
	0.895242	0.725771	NaN
	0.895242	0.725771	NaN
	0.895242	0.725771	NaN
	0.852144	0.725771	NaN
	0.806748	0.725771	NaN
	0.806748	0.725771	NaN
	0.806748	0.725771	NaN
	0.806748	0.725771	NaN
	0.806748	0.725771	NaN
	0.758640	0.671888	NaN
	0.707266	0.775919	NaN
	0.707266	0.725769	NaN
	0.707266	0.725769	NaN
	0.651858	0.725769	NaN
	0.651858	0.725769	NaN
	0.651858	0.725769	NaN
	0.591280	0.725769	NaN
	0.591278	0.725769	NaN
	0.523739	0.725769	NaN
	0.523739	0.671886	NaN
	0.523739	0.725767	NaN
	0.523739	0.671886	NaN
	0.446090	0.613288	NaN
	0.446090	0.613288	NaN
	0.351691	0.613288	NaN
	0.219954	0.613288	NaN
	0.219954	0.613288	NaN
	0.219954	0.548463	NaN
	0.219954	0.548463	NaN
	NaN	0.548463	NaN
	NaN	0.474874	NaN
	NaN	0.548463	NaN
	NaN	0.548463	NaN
	NaN	0.387551	NaN
	NaN	0.387551	NaN
	NaN	0.387551	NaN
	NaN	0.474871	NaN
	NaN	0.387547	NaN
	NaN	0.387547	0.038359
	NaN	0.273653	0.038359
	NaN	NaN	0.038359
	NaN	NaN	0.038359
	NaN	NaN	0.277088
	NaN	NaN	0.277088
	NaN	NaN	0.389980
	NaN	NaN	0.389980
	NaN	NaN	0.389980
	NaN	NaN	0.389980
	NaN	NaN	0.389980
	NaN	NaN	0.476855
	NaN	NaN	0.476855
	NaN	NaN	0.476855
	NaN	NaN	0.476855
	NaN	NaN	0.550179
	NaN	NaN	0.550179
	NaN	NaN	0.614820
	NaN	NaN	0.614820
	NaN	NaN	0.614820
	NaN	NaN	0.614820
	NaN	NaN	0.550178
	NaN	NaN	0.614820
	NaN	NaN	0.550178
	NaN	NaN	0.614819
	NaN	NaN	0.614819
	NaN	NaN	0.614819
	NaN	NaN	0.614819
	NaN	NaN	0.614819
	NaN	NaN	0.614819
	NaN	NaN	0.614819
	NaN	NaN	0.673282
	NaN	NaN	0.673282
	NaN	NaN	0.673282
	NaN	NaN	0.673282
	NaN	NaN	0.673282
	NaN	NaN	0.673282
	NaN	NaN	0.673282
	NaN	NaN	0.727059
	NaN	NaN	0.673282
	NaN	NaN	0.673282
	NaN	NaN	0.673282
	NaN	NaN	0.673282
	NaN	NaN	0.673282
	NaN	NaN	0.673281
	NaN	NaN	0.673282
	NaN	NaN	0.673282
	NaN	NaN	0.614818
	NaN	NaN	0.614818
	NaN	NaN	0.673281
	NaN	NaN	0.673282
	NaN	NaN	0.614818
	NaN	NaN	0.614818
	NaN	NaN	0.614818
	NaN	NaN	0.614818
	NaN	NaN	0.614818
	NaN	NaN	0.614818
	NaN	NaN	0.614818
	NaN	NaN	0.550177
	NaN	NaN	0.550177
	NaN	NaN	0.550177
	NaN	NaN	0.550177
	NaN	NaN	0.550177
	NaN	NaN	0.550177
	NaN	NaN	0.476851
	NaN	NaN	0.476851
	0.219954	NaN	0.476851
	0.219954	NaN	0.476851
	0.219954	NaN	0.389976
	0.219954	NaN	0.476851
	NaN	NaN	0.389976
	0.219954	NaN	0.389976
	NaN	NaN	0.389976
	NaN	NaN	0.389976
	NaN	NaN	0.389976
	0.219948	NaN	0.277082
	0.219948	NaN	0.277082
	0.219948	NaN	0.277082
	0.219948	NaN	0.277082
	0.219948	NaN	0.277082
	0.219948	NaN	NaN
	0.219948	NaN	NaN
	0.219948	NaN	NaN
	0.219948	NaN	NaN
	0.351687	NaN	0.038316
	0.351687	NaN	NaN
	0.351687	NaN	NaN
	0.351687	NaN	NaN
	0.351687	NaN	NaN
	0.351687	NaN	NaN
	0.219942	NaN	NaN
	0.446084	NaN	NaN
	0.446084	NaN	NaN
	0.446084	NaN	NaN
	0.446084	0.273658	NaN
	0.446084	0.273658	NaN
	0.446084	0.273658	NaN
	0.523734	0.273658	NaN
	0.446081	0.273658	NaN
	0.523734	0.387554	NaN
	0.523734	0.387554	NaN
	0.523734	0.387554	NaN
	0.523734	0.387554	NaN
	0.523734	0.273662	NaN
	0.591274	0.387554	NaN
	0.591274	0.387554	NaN
	0.591274	0.387554	NaN
	0.591274	0.273662	NaN
	0.651854	0.387554	NaN
	0.651854	0.387554	NaN
	0.707263	0.387554	NaN
	0.651854	0.387554	NaN
	0.707263	0.474877	NaN
	0.707263	0.474877	NaN
	0.758637	0.474877	NaN
	0.758637	0.474877	NaN
	0.758637	0.387557	NaN
	0.806745	0.387557	NaN
	0.852142	0.387557	NaN
	0.852142	0.387557	NaN
	0.852142	0.387557	NaN
	0.852142	0.387557	NaN
	0.852142	0.474877	NaN
	0.936356	0.387557	NaN
	0.852142	0.387557	NaN
	0.936356	0.387557	NaN
	0.936356	0.387557	NaN
	0.936356	0.387557	NaN
	0.936356	0.474879	NaN
	0.975742	0.474879	NaN
	0.936356	0.474879	NaN
	0.975742	0.474879	NaN
	0.975742	0.474879	NaN
	1.013597	0.474879	NaN
	1.013597	0.474879	NaN
	1.013597	0.387561	NaN
	1.013597	0.548471	NaN
	1.050090	0.474879	NaN
	1.050090	0.387561	NaN
	1.050090	0.474879	NaN
	1.050090	0.474879	NaN
	1.085356	0.387561	NaN
	1.085356	0.387561	NaN
	1.085356	0.387561	NaN
	1.119512	0.387561	NaN
	1.119512	0.387561	NaN
	1.119512	0.387561	NaN
	1.119512	0.387561	NaN
	1.152656	0.387561	NaN
	1.152656	0.387561	NaN
	1.152656	0.387561	NaN
	1.152656	0.387561	NaN
	1.152656	0.387561	NaN
	1.119513	0.387561	NaN
	1.119513	0.387561	NaN
	1.184874	0.387561	NaN
	1.152657	0.273667	NaN
	1.184874	0.273667	0.038330
	1.184875	0.273667	NaN
	1.184875	0.273667	0.038330
	1.184875	0.273667	0.038330
	1.184875	0.273667	0.038330
	1.184875	0.273667	0.038330
	1.184875	0.273667	NaN
	1.184875	0.273667	0.038330
	1.216239	0.273667	NaN
	1.152658	0.273667	0.277084
	1.184876	0.273667	0.277084
	1.152658	0.273667	0.277084
	1.184876	0.273667	0.277084
	1.152658	0.273667	0.389977
	1.184876	0.273667	0.389977
	1.152658	NaN	0.389977
	1.152658	0.273667	0.389977
	1.152658	NaN	0.389977
	1.119515	NaN	0.389977
	1.152660	NaN	0.389977
	1.152660	NaN	0.389977
	1.152660	NaN	0.476853
	1.152660	NaN	0.476853
	1.152660	NaN	0.476853
	1.119515	NaN	0.550177
	1.152660	NaN	0.550177
	1.152660	NaN	0.614819
	1.119515	NaN	0.614819
	1.152660	NaN	0.614819
	1.085361	NaN	0.614819
	1.119517	NaN	0.614819
	1.119517	NaN	0.550177
	1.085361	NaN	0.550177
	1.119517	NaN	0.550177
	1.085361	NaN	0.614818
	1.085361	NaN	0.614818
	1.085361	NaN	0.673282
	1.085361	NaN	0.673282
	1.085361	NaN	0.673282
	1.085361	NaN	0.614818
	1.085361	NaN	0.673282
	1.085361	NaN	0.727059
	1.085361	NaN	0.727059
	1.050096	NaN	0.727059
	1.050096	NaN	0.727059
	1.085361	NaN	0.727059
	1.050096	NaN	0.673281
	1.085361	NaN	0.673281
	1.085361	NaN	0.673281
	1.050096	NaN	0.673281
	1.085361	NaN	0.673281
	1.085361	NaN	0.673281
	1.050096	NaN	0.673281
	1.050095	NaN	0.727058
	1.013603	NaN	0.673281
	1.050095	NaN	0.673281
	1.085361	NaN	0.673281
	1.050095	NaN	0.673281
	1.085361	NaN	0.673281
	1.050096	NaN	0.673281
	1.050095	NaN	0.727058
	1.050096	NaN	0.727058
	1.050095	NaN	0.727058
	1.050095	NaN	0.673281
	1.050095	NaN	0.727058
	1.050095	NaN	0.727058
	1.050095	NaN	0.673281
	1.050095	NaN	0.673280
	1.050095	NaN	0.614817
	1.050095	NaN	0.673281
	1.050095	NaN	0.673281
	1.050095	NaN	0.673281
	1.050095	NaN	0.614817
	1.085360	NaN	0.614817
	1.085360	NaN	0.614817
	1.085360	NaN	0.614817
	1.085360	NaN	0.614817
	1.085360	NaN	0.614817
	1.085360	NaN	0.614817
	1.085360	NaN	0.614817
	1.085360	NaN	0.614817
	1.050093	NaN	0.550176
	1.085360	NaN	0.614817
	1.050093	NaN	0.550176
	1.050093	NaN	0.614817
	1.085360	NaN	0.550176
	1.085360	NaN	0.550176
	1.085360	NaN	0.476851
	1.085358	NaN	0.550176
	1.119514	NaN	0.476851
	1.085358	NaN	0.476851
	1.085358	NaN	0.476851
	1.085358	NaN	0.389974
	1.085358	NaN	0.476851
	1.085358	NaN	0.389974
	1.085358	NaN	0.389974
	1.085358	NaN	0.389974
	1.085358	NaN	0.277080
	1.085358	NaN	0.277080
	1.085358	NaN	0.277080
	1.085357	NaN	0.277080
	1.085357	NaN	0.277080
	1.085357	NaN	0.277080
	1.050092	NaN	0.038301
	1.085357	NaN	0.038301
	1.085357	NaN	0.038301
	1.085357	NaN	0.038301
	1.119512	NaN	NaN
	1.085357	NaN	NaN
	1.085357	NaN	NaN
	1.085357	NaN	NaN
	1.085357	NaN	NaN
	1.050091	NaN	NaN
	1.050091	NaN	NaN
	1.050091	NaN	NaN
	1.085356	NaN	NaN
	1.085356	NaN	NaN
	1.050091	0.273667	NaN
	1.050090	0.273667	NaN
	1.013598	0.273667	NaN
	1.050090	0.273667	NaN
	1.050090	NaN	NaN
	1.013597	0.273667	NaN
	1.013598	0.273667	NaN
	1.013597	0.273667	NaN
	1.013597	NaN	NaN
	0.975742	0.273667	NaN
	1.013598	0.273667	NaN
	0.975742	0.273667	NaN
	0.975742	0.273667	NaN
	0.975742	0.273667	NaN
	0.975742	0.273667	NaN
	0.975742	0.273667	NaN
	0.975742	0.273667	NaN
	0.936356	0.273667	NaN
	0.936356	0.273667	NaN
	0.936356	0.273667	NaN
	0.936356	0.273667	NaN
	0.895241	0.273667	NaN
	0.895241	0.273662	NaN
	0.936356	0.273662	NaN
	0.895241	0.273667	NaN
	0.852142	0.387557	NaN
	0.852142	0.273662	NaN
	0.852142	0.273662	NaN
	0.806746	0.273667	NaN
	0.806746	0.273662	NaN
	0.806746	NaN	NaN
	0.806746	0.273662	NaN
	0.806746	NaN	NaN
	0.806746	0.273662	NaN
	0.806746	0.273662	NaN
	0.806746	0.273662	NaN
	0.758639	0.273662	NaN
	0.806746	0.273662	NaN
	0.758639	0.273662	NaN
	0.758639	0.273662	NaN
	0.758639	0.273662	NaN
	0.758639	0.387554	NaN
	0.758639	0.387554	NaN
	0.758639	0.273662	NaN
	0.707266	0.387554	NaN
	0.707266	0.273658	NaN
	0.707266	0.387554	NaN
	0.707266	0.273658	NaN
	0.707266	0.273658	NaN
	0.707266	0.273658	NaN
	0.651858	0.273658	NaN
	0.651858	0.273658	NaN
	0.651858	0.273658	NaN
	0.591278	0.273658	NaN
	0.523739	0.273658	NaN
	0.591280	0.273658	NaN
	0.591280	0.273658	NaN
	0.591280	0.273658	NaN
	0.591280	0.273658	NaN
	0.523739	0.273658	NaN
	0.591280	0.273658	NaN
	0.523742	0.273658	NaN
	0.446090	0.273658	NaN
	0.523742	NaN	0.038330
	0.523742	NaN	0.038330
	0.446090	NaN	0.038330
	0.446090	NaN	0.038330
	0.446090	NaN	0.038330
	0.446090	NaN	0.038330
	0.351695	NaN	0.038330
	0.351695	NaN	0.038330
	0.351695	NaN	0.038330
	0.351695	NaN	0.277086
	0.446092	NaN	0.277086
	0.351695	NaN	0.277086
	0.446092	NaN	0.277086
	0.219960	NaN	0.277086
	0.351695	NaN	0.277086
	0.219960	NaN	0.277086
	0.351698	NaN	0.389978
	0.219960	NaN	0.277086
	0.219960	NaN	0.277086
	0.219960	NaN	0.389978
	0.351698	NaN	0.389978
	0.351698	NaN	0.389978
	0.219960	NaN	0.277086
	0.219960	NaN	0.389978
	0.219960	NaN	0.389978
	NaN	NaN	0.389978
	0.219960	NaN	0.389978
	0.219960	NaN	0.389978
	NaN	NaN	0.389978
	NaN	NaN	0.389978
	NaN	NaN	0.389978
	0.351698	NaN	0.389978
	0.219966	NaN	0.476855
	0.219966	NaN	0.389978
	0.219966	NaN	0.389978
	NaN	NaN	0.389978
	NaN	NaN	0.476855
	0.219966	NaN	0.389978
	NaN	NaN	0.389978
	NaN	NaN	0.389978
	NaN	NaN	0.389978
	0.219966	NaN	0.389978
	0.219966	NaN	0.389978
	0.219966	NaN	0.389978
	NaN	NaN	0.389978
	0.219966	NaN	0.389978
	0.219966	NaN	0.389978
	0.219966	NaN	0.476854
	0.219966	NaN	0.476855
	0.219966	NaN	0.389978
	0.219966	NaN	0.389978
	0.219966	NaN	0.476854
	0.219966	NaN	0.389978
	0.219966	NaN	0.389978
	0.219966	NaN	0.389978
	0.219966	NaN	0.389978
	0.219966	NaN	0.389978
	0.219966	NaN	0.389978
	0.219966	NaN	0.389978
	0.219966	NaN	0.389978
	0.219966	NaN	0.389978
	0.219966	NaN	0.389978
	0.351698	NaN	0.389978
	0.351698	NaN	0.389978
	0.351698	NaN	0.389978
	0.351698	NaN	0.389978
	0.351698	NaN	0.389978
	0.351698	NaN	0.389978
	0.351698	NaN	0.389978
	0.351698	NaN	0.389978
	0.351698	NaN	0.389978
	0.351698	NaN	0.389978
	0.351698	NaN	0.389978
	0.351698	NaN	0.389978
	0.446092	NaN	0.277086
	0.446092	NaN	0.277086
	0.446092	NaN	0.277086
	0.446092	NaN	0.389978
	0.446092	NaN	0.389978
	0.446092	NaN	0.277086
	0.446092	NaN	0.277086
	0.446092	NaN	0.277086
	0.446092	NaN	0.277086
	0.523742	NaN	0.277086
	0.523742	NaN	0.277086
	0.523742	NaN	0.277086
	0.523742	NaN	0.038330
	0.523742	NaN	0.038330
	0.523742	NaN	0.038330
	0.523742	NaN	0.038330
	0.523742	NaN	0.038330
	0.523742	NaN	0.038330
	0.591280	0.273658	0.038330
	0.591280	NaN	0.038330
	0.591280	NaN	0.038330
	0.591280	NaN	0.038330
	0.591280	0.273658	NaN
	0.591280	0.273658	0.038330
	0.591280	0.273658	NaN
	0.591280	0.273658	NaN
	0.591280	0.273658	NaN
	0.651858	0.273658	NaN
	0.651858	0.273658	NaN
	0.651858	0.273658	NaN
	0.651858	0.273658	NaN
	0.707266	0.387554	NaN
	0.707266	NaN	NaN
	0.707266	NaN	NaN
	0.707266	NaN	NaN
	0.707266	NaN	NaN
	0.707266	0.273662	NaN
	0.758640	0.273662	NaN
	0.707266	0.273662	NaN
	0.707266	0.273662	NaN
	0.806748	0.387554	NaN
	0.806748	0.273662	NaN
	0.758639	0.387554	NaN
	0.758639	0.273662	NaN
	0.806748	0.273662	NaN
	0.852144	0.273662	NaN
	0.852144	0.387554	NaN
	0.852144	0.273662	NaN
	0.852144	0.273662	NaN
	0.852144	0.273662	NaN
	0.852144	0.273662	NaN
	0.852144	0.273662	NaN
	0.852144	0.273662	NaN
	0.852144	0.273662	NaN
	0.895242	NaN	NaN
	0.895242	0.273662	NaN
	0.895242	NaN	NaN
	0.852144	0.273662	NaN
	0.936357	0.273662	NaN
	0.936357	NaN	NaN
	0.936357	NaN	NaN
	0.936357	0.273662	NaN
	0.936357	NaN	NaN
	0.936357	0.273662	NaN
	0.936357	NaN	NaN
	0.975742	0.273662	NaN
	0.975743	NaN	NaN
	0.936357	NaN	NaN
	0.975742	NaN	NaN
	0.975742	NaN	NaN
	0.975742	NaN	NaN
	0.975742	0.273662	NaN
	1.013598	NaN	NaN
	0.975743	NaN	NaN
	1.013598	NaN	NaN
	1.013598	NaN	NaN
	1.013598	NaN	NaN
	1.013598	NaN	NaN
	1.013598	NaN	NaN
	1.013598	NaN	NaN
	1.013598	NaN	NaN
	1.050091	NaN	NaN
	1.050091	NaN	NaN
	1.013598	NaN	NaN
	1.050091	NaN	NaN
	1.050091	NaN	0.038301
	1.050091	NaN	0.038301
	1.050091	NaN	0.038301
	1.050091	NaN	0.038301
	1.050091	NaN	0.038301
	1.050091	NaN	0.038301
	1.050091	NaN	0.038301
	1.050091	NaN	0.277080
	1.050091	NaN	0.277080
	1.050091	NaN	0.038301
	1.050091	NaN	0.277080
	1.050091	NaN	0.277080
	1.050091	NaN	0.277080
	1.050091	NaN	0.277080
	1.050091	NaN	0.277080
	1.085357	NaN	0.277080
	1.085357	NaN	0.277080
	1.085357	NaN	0.389974
	1.085357	NaN	0.389974
	1.085357	NaN	0.389974
	1.050092	NaN	0.389974
	1.050092	NaN	0.277080
	1.050092	NaN	0.389974
	1.085358	NaN	0.389974
	1.050092	NaN	0.277080
	1.050092	NaN	0.476851
	1.050092	NaN	0.389974
	1.050092	NaN	0.389974
	1.050092	NaN	0.389974
	1.013601	NaN	0.389974
	1.050092	NaN	0.389974
	1.013601	NaN	0.389974
	1.085358	NaN	0.389974
	1.050093	NaN	0.389974
	1.085358	NaN	0.389974
	1.050093	NaN	0.476850
	1.050093	NaN	0.389974
	1.050093	NaN	0.476850
	1.050093	NaN	0.476850
	1.050093	NaN	0.476850
	1.050093	NaN	0.550176
	1.050093	NaN	0.550176
	1.050093	NaN	0.550176
	1.050093	NaN	0.550176
	1.050093	NaN	0.550176
	1.050093	NaN	0.476850
	1.050093	NaN	0.550176
	1.050093	NaN	0.550176
	1.050093	NaN	0.550176
	1.050093	NaN	0.550176
	1.050093	NaN	0.550176
	1.050093	NaN	0.550176
	1.050093	NaN	0.550176
	1.050093	NaN	0.550176
	1.013602	NaN	0.550176
	1.050093	NaN	0.550176
	1.013602	NaN	0.550176
	1.050093	NaN	0.550176
	1.050093	NaN	0.550176
	1.050093	NaN	0.550176
	1.013602	NaN	0.550176
	1.013602	NaN	0.550176
	1.050093	NaN	0.550176
	1.013602	NaN	0.476851
	1.013602	NaN	0.550176
	1.013602	NaN	0.476851
	1.013602	NaN	0.476851
	1.013602	NaN	0.550176
	1.050093	NaN	0.476851
	1.050093	NaN	0.476851
	1.013602	NaN	0.476851
	1.013602	NaN	0.476851
	1.050093	NaN	0.476851
	1.050093	NaN	0.476851
	1.050093	NaN	0.476851
	1.050093	NaN	0.476851
	1.050093	NaN	0.476851
	1.050093	NaN	0.476851
	1.050093	NaN	0.476851
	1.050093	NaN	0.389976
	1.050093	NaN	0.476851
	1.050093	NaN	0.389976
	1.050093	NaN	0.389976
	1.050093	NaN	0.389976
	1.050093	NaN	0.389976
	1.050093	NaN	0.389976
	1.050093	NaN	0.389976
	1.050093	NaN	0.389976
	1.050093	NaN	0.389976
	1.050093	NaN	0.389976
	1.050093	NaN	0.389976
	1.050093	NaN	0.389976
	1.050093	NaN	0.277082
	1.050093	NaN	0.389976
	1.013601	NaN	0.389976
	1.013601	NaN	0.277082
	1.013601	NaN	0.277082
	1.013601	NaN	0.277082
	1.013601	NaN	0.277082
	1.050093	NaN	0.277082
	1.013601	NaN	0.038316
	1.013601	NaN	0.038316
	1.013601	NaN	0.038316
	1.013601	NaN	0.038316
	1.013601	NaN	0.038316
	1.013601	NaN	0.038316
	1.013601	NaN	0.038316
	1.013601	NaN	0.038316
	1.013601	0.273662	0.038316
	0.975744	0.273667	0.038316
	0.975744	0.273662	0.038316
	0.975744	NaN	NaN
	0.975744	NaN	NaN
	0.975744	0.273662	NaN
	0.975744	NaN	NaN
	0.975744	0.273662	NaN
	0.975744	0.273662	NaN
	0.975744	0.273662	NaN
	0.936359	0.273662	NaN
	0.936359	0.273662	NaN
	0.936359	0.273662	NaN
	0.936359	NaN	NaN
	0.936359	0.273662	NaN
	0.936359	0.273662	NaN
	0.936359	0.273662	NaN
	0.936359	0.273662	NaN
	0.936359	0.273662	NaN
	0.936359	0.273662	NaN
	0.936359	0.273662	NaN
	0.852145	0.273662	NaN
	0.852145	0.273662	NaN
	0.852145	0.273662	NaN
	0.852145	0.273662	NaN
	0.895242	0.273662	NaN
	0.852145	0.273662	NaN
	0.895242	0.273662	NaN
	0.852145	0.273662	NaN
	0.852145	0.273662	NaN
	0.852145	0.273662	NaN
	0.852145	0.273662	NaN
	0.852145	0.273662	NaN
	0.852145	0.273662	NaN
	0.806748	0.273662	NaN
	0.806748	0.273662	NaN
	0.806748	0.387554	NaN
	0.806748	0.387554	NaN
	0.806748	0.273662	NaN
	0.758640	0.387554	NaN
	0.758640	0.387554	NaN
	0.758640	0.387554	NaN
	0.758640	0.273658	NaN
	0.758640	NaN	NaN
	0.707266	0.273658	NaN
	0.707266	0.273658	NaN
	0.758640	0.273658	NaN
	0.707268	0.273658	NaN
	0.651858	0.273658	NaN
	0.707268	0.273658	NaN
	0.651858	0.273658	NaN
	0.651858	NaN	NaN
	0.651858	0.273658	NaN
	0.707268	NaN	NaN
	0.591280	0.273658	NaN
	0.651858	NaN	NaN
	0.591280	0.273658	NaN
	0.591280	NaN	NaN
	0.591280	NaN	NaN
	0.591280	0.273658	NaN
	0.591280	NaN	NaN
	0.591280	NaN	NaN
	0.591280	NaN	NaN
	0.591280	NaN	0.038316
	0.591280	NaN	NaN
	0.591280	NaN	NaN
	0.591280	NaN	0.038316
	0.523742	NaN	NaN
	0.523742	NaN	NaN
	0.523742	NaN	0.038316
	0.523742	NaN	0.038316
	0.591280	NaN	0.277084
	0.523742	NaN	NaN
	0.523742	NaN	NaN
	0.523742	NaN	0.038316
	0.446090	NaN	NaN
	0.523742	NaN	NaN
	0.446090	NaN	0.038316
	0.523742	NaN	0.038316
	0.523742	NaN	0.038316
	0.523742	NaN	0.038316
	0.523742	NaN	0.038316
	0.523742	NaN	0.038316
	0.446092	NaN	NaN
	0.446092	NaN	NaN
	0.523742	NaN	NaN
	0.446092	0.387551	NaN
	0.523742	0.474874	NaN
	0.523742	0.548466	NaN
	0.351695	0.613288	NaN
	0.219960	0.671886	NaN
	NaN	0.671886	NaN
	0.351698	0.775917	NaN
	0.523744	0.775917	NaN
	0.707270	0.725769	NaN
	0.707270	0.725769	NaN
	0.806751	0.823017	NaN
	0.852147	0.867564	NaN
	0.895245	0.909932	NaN
	1.050095	0.950414	NaN
	1.119515	0.950414	NaN
	1.152660	0.950415	NaN
	1.276657	1.026599	NaN
	1.389635	1.062645	NaN
	1.494095	1.026600	NaN
	1.705900	1.062647	NaN
	1.661167	1.062647	NaN
	1.705900	1.026601	NaN
	1.705900	0.909936	NaN
	1.727833	0.725776	NaN
	1.894168	0.613298	NaN
	1.792019	0.613298	NaN
	1.952895	0.671896	NaN
	2.028554	0.671896	NaN
	1.853984	0.613300	NaN
	1.874184	0.474890	NaN
	1.913944	0.548480	NaN
	1.913943	0.613302	NaN
	1.972081	0.548482	NaN
	1.972081	0.548482	NaN
	2.101490	0.548485	NaN
	2.009904	0.387581	NaN
	1.972080	0.387581	NaN
	2.047030	NaN	NaN
	1.991082	NaN	NaN
	1.972080	NaN	NaN
	2.065343	NaN	NaN
	2.065343	NaN	NaN
	2.047031	NaN	NaN
	2.101490	NaN	0.038272
	2.119332	NaN	0.277076
	2.189247	NaN	0.389971
	2.137026	NaN	0.389971
	2.171980	NaN	0.550174
	2.240252	NaN	0.550174
	2.206380	NaN	0.614815
	2.206380	NaN	0.673279
	2.189248	NaN	0.727056
	2.206380	NaN	0.824151
	2.189247	NaN	0.868637
	2.171979	NaN	0.910954
	2.137025	NaN	0.910954
	2.101490	NaN	0.868637
	2.065343	NaN	0.824151
	1.972079	NaN	0.727057
	1.874181	NaN	0.673280
	1.792016	NaN	0.476849
	1.661165	NaN	0.389973
	1.543673	NaN	0.038272
	1.389632	NaN	NaN
	1.276652	NaN	NaN
	1.085352	NaN	NaN
	0.936353	NaN	NaN
	0.758634	NaN	NaN
	0.446075	NaN	NaN
	NaN	NaN	NaN
	NaN	NaN	NaN
	NaN	NaN	NaN
	NaN	NaN	NaN
	NaN	NaN	NaN
	NaN	NaN	NaN
	NaN	NaN	NaN
	NaN	NaN	NaN
	NaN	NaN	NaN
	NaN	NaN	NaN
	NaN	NaN	NaN
	NaN	NaN	NaN
	NaN	NaN	NaN
	NaN	NaN	NaN
	NaN	NaN	NaN
	NaN	NaN	NaN
	NaN	NaN	NaN
	NaN	NaN	NaN
	NaN	NaN	NaN
	NaN	NaN	NaN
	NaN	NaN	NaN
	NaN	NaN	NaN
	NaN	NaN	NaN
	NaN	NaN	NaN
	NaN	NaN	NaN
	NaN	NaN	NaN
	NaN	NaN	NaN
	NaN	NaN	NaN
	NaN	NaN	NaN
	NaN	NaN	NaN
	NaN	NaN	0.038287
	NaN	NaN	0.038287
	NaN	NaN	0.277080
	NaN	NaN	0.389974
	NaN	NaN	0.389974
	NaN	NaN	0.476850
	NaN	NaN	0.476851
	NaN	NaN	0.550176
	NaN	NaN	0.614817
	NaN	NaN	0.614817
	NaN	NaN	0.614817
	NaN	NaN	0.673281
	NaN	NaN	0.673281
	NaN	NaN	0.673281
	NaN	NaN	0.727059
	NaN	NaN	0.727059
	NaN	NaN	0.727059
	NaN	NaN	0.727059
	NaN	NaN	0.777124
	NaN	NaN	0.824154
	NaN	NaN	0.777124
	NaN	NaN	0.777124
	NaN	NaN	0.824154
	NaN	NaN	0.824154
	NaN	NaN	0.910957
	NaN	NaN	0.951394
	NaN	NaN	0.951394
	NaN	NaN	0.910957
	NaN	NaN	0.910957
	NaN	NaN	0.910957
	NaN	NaN	0.910957
	NaN	NaN	0.910957
	NaN	NaN	0.951394
	NaN	NaN	0.951394
	NaN	NaN	0.951394
	NaN	NaN	0.951394
	NaN	NaN	0.910958
	NaN	NaN	0.951394
	NaN	NaN	0.951394
	NaN	NaN	0.910958
	NaN	NaN	0.910958
	NaN	NaN	0.910958
	NaN	NaN	0.910958
	NaN	NaN	0.868641
	NaN	NaN	0.910958
	NaN	NaN	0.910958
	NaN	NaN	0.910958
	NaN	NaN	0.910959
	NaN	NaN	0.868642
	NaN	NaN	0.824156
	NaN	NaN	0.824156
	NaN	NaN	0.777126
	NaN	NaN	0.824156
	NaN	NaN	0.777127
	NaN	NaN	0.777127
	NaN	NaN	0.727062
	NaN	NaN	0.727062
	NaN	NaN	0.777127
	NaN	NaN	0.727063
	NaN	NaN	0.727063
	0.220007	NaN	0.673286
	0.220007	NaN	0.673286
	0.220007	NaN	0.673286
	0.351724	0.273658	0.614823
	0.351724	0.273658	0.550182
	0.446116	0.273658	0.550182
	0.351724	0.387554	0.550182
	0.446113	0.387554	0.476858
	0.446113	0.474874	0.550183
	0.523761	0.474874	0.476860
	0.591298	0.548466	0.389984
	0.591298	0.548466	0.277094
	0.591298	0.548466	0.277094
	0.591298	0.613288	0.277094
	0.651874	0.548466	0.389985
	0.758654	0.671886	0.389985
	0.758654	0.725767	0.277096
	0.758654	0.671886	0.277096
	0.758654	0.725767	0.277096
	0.806762	0.725767	0.038417
	0.806762	0.725767	0.038417
	0.852157	0.725767	0.038417
	0.852157	0.775917	0.038417
	0.852157	0.775917	0.038417
	0.936370	0.775917	0.038417
	0.936370	0.823016	0.038417
	0.936370	0.823016	0.038431
	0.975754	0.775917	NaN
	1.013610	0.823016	NaN
	1.013610	0.867562	NaN
	1.013610	0.867562	0.038431
	1.050101	0.867562	NaN
	1.050101	0.909931	NaN
	1.050101	0.909931	NaN
	1.085365	0.909931	NaN
	1.085365	0.867564	NaN
	1.085365	0.909931	NaN
	1.085365	0.909931	NaN
	1.119520	0.867564	NaN
	1.119520	0.867564	NaN
	1.085364	0.867564	NaN
	1.050098	0.867564	NaN
	1.050098	0.867564	NaN
	1.050098	0.909932	NaN
	1.085363	0.867564	NaN
	1.085363	0.909932	NaN
	1.119518	0.909932	NaN
	1.085362	0.909932	NaN
	1.050096	0.909932	NaN
	1.085361	0.867565	NaN
	1.085361	0.867565	NaN
	1.085361	0.823020	NaN
	1.119515	0.823020	NaN
	1.119514	0.823020	NaN
	1.119514	0.823020	NaN
	1.119514	0.823020	NaN
	1.119513	0.823020	NaN
	1.152657	0.823020	NaN
	1.152656	0.775922	NaN
	1.152656	0.775922	NaN
	1.152656	0.775922	NaN
	1.184873	0.775922	NaN
	1.184873	0.775922	NaN
	1.184873	0.775922	NaN
	1.216236	0.725775	NaN
	1.216236	0.775922	NaN
	1.246811	0.725775	NaN
	1.246811	0.725775	NaN
	1.246811	0.725775	NaN
	1.246810	0.725775	NaN
	1.276653	0.671894	NaN
	1.276652	0.671894	NaN
	1.276652	0.671894	NaN
	1.305813	0.671894	NaN
	1.276652	0.671894	NaN
	1.305813	0.671894	NaN
	1.305813	0.671894	NaN
	1.334337	0.671894	NaN
	1.305812	0.671894	NaN
	1.334336	0.725776	NaN
	1.334336	0.725776	NaN
	1.334336	0.613298	NaN
	1.362262	0.613298	NaN
	1.362262	0.613298	NaN
	1.334335	0.613298	NaN
	1.362262	0.613298	NaN
	1.334335	0.613298	NaN
	1.362261	0.613298	NaN
	1.362261	0.548475	NaN
	1.362261	0.548475	NaN
	1.362261	0.548475	NaN
	1.334334	0.548475	NaN
	1.389627	0.548475	NaN
	1.362261	0.548475	NaN
	1.362261	0.548475	NaN
	1.362261	0.474885	NaN
	1.362261	0.387567	NaN
	1.362261	0.387567	NaN
	1.362261	0.474885	NaN
	1.362261	0.387567	NaN
	1.334333	0.387567	NaN
	1.334333	0.387567	NaN
	1.334333	0.273677	NaN
	1.334333	NaN	NaN
	1.362261	NaN	NaN
	1.362261	NaN	NaN
	1.362261	NaN	NaN
	1.334333	NaN	NaN
	1.334333	NaN	NaN
	1.362261	NaN	NaN
	1.305809	NaN	NaN
	1.305809	NaN	NaN
	1.305809	NaN	NaN
	1.305809	NaN	NaN
	1.305809	NaN	NaN
	1.276648	NaN	NaN
	1.276648	NaN	NaN
	1.246805	NaN	NaN
	1.246805	NaN	NaN
	1.276649	NaN	NaN
	1.246805	NaN	NaN
	1.246805	NaN	NaN
	1.216231	NaN	NaN
	1.216231	NaN	0.277068
	1.246807	NaN	0.389966
	1.216232	NaN	0.389966
	1.216232	NaN	0.550170
	1.216232	NaN	0.550170
	1.184868	NaN	0.550170
	1.184868	NaN	0.550170
	1.184868	NaN	0.614812
	1.184868	NaN	0.614812
	1.152652	NaN	0.673275
	1.119508	NaN	0.727053
	1.119508	NaN	0.727053
	1.085354	NaN	0.727053
	1.085354	NaN	0.777119
	1.050088	NaN	0.824148
	1.050088	NaN	0.868636
	1.085355	NaN	0.824149
	1.050088	NaN	0.868636
	1.050090	NaN	0.868636
	1.013597	NaN	0.824148
	1.050090	NaN	0.910952
	1.013598	NaN	0.910952
	1.013598	NaN	0.910952
	0.975743	NaN	0.910952
	0.975743	NaN	0.951389
	0.936359	NaN	0.910952
	0.936359	NaN	0.951389
	0.895242	NaN	0.910952
	0.936359	NaN	0.910952
	0.852145	NaN	0.910952
	0.852145	NaN	0.910952
	0.806749	NaN	0.951389
	0.852147	NaN	0.951389
	0.806749	NaN	0.951389
	0.806751	NaN	0.951389
	0.806751	NaN	0.951389
	0.758642	NaN	0.951389
	0.758644	NaN	0.990176
	0.758644	NaN	0.990176
	0.758644	NaN	0.951389
	0.758644	NaN	0.990176
	0.758644	NaN	0.990176
	0.758644	NaN	0.990176
	0.707272	NaN	0.990176
	0.707272	NaN	0.951390
	0.707272	NaN	0.990177
	0.707272	NaN	0.951390
	0.758645	NaN	0.990177
	0.758645	NaN	0.951390
	0.707274	NaN	0.951390
	0.707274	NaN	0.951390
	0.758645	NaN	0.990177
	0.758645	NaN	0.990177
	0.758647	NaN	0.951390
	0.758647	NaN	0.951390
	0.758647	NaN	0.951390
	0.758647	NaN	0.910954
	0.758647	NaN	0.910954
	0.758647	NaN	0.910954
	0.806754	NaN	0.910954
	0.852151	NaN	0.868637
	0.852151	NaN	0.868637
	0.852151	NaN	0.868637
	0.852151	NaN	0.868637
	0.852151	NaN	0.868637
	0.895248	NaN	0.824151
	0.895248	NaN	0.824151
	0.895248	NaN	0.777122
	0.895248	NaN	0.777122
	0.895248	NaN	0.727057
	0.936364	NaN	0.673280
	0.936363	NaN	0.673280
	1.013603	NaN	0.673280
	1.050096	NaN	0.673280
	1.013603	NaN	0.673280
	1.050095	NaN	0.614816
	1.050095	NaN	0.673280
	1.085361	NaN	0.614816
	1.050095	NaN	0.476849
	1.050095	NaN	0.389973
	1.119515	NaN	0.277078
	1.085360	NaN	0.277078
	1.119515	NaN	0.389974
	1.119515	NaN	0.389974
	1.152658	NaN	0.277080
	1.184875	NaN	0.277080
	1.246814	0.273667	0.277080
	1.216239	0.273667	0.038301
	1.184875	NaN	0.038301
	1.184875	0.273667	NaN
	1.216238	0.474882	NaN
	1.216238	0.474882	NaN
	1.216238	0.474882	NaN
	1.246813	0.474882	NaN
	1.276656	0.474882	NaN
	1.246813	0.387564	NaN
	1.246813	0.474885	NaN
	1.246813	0.548473	NaN
	1.246813	0.548473	NaN
	1.246813	0.548473	NaN
	1.276655	0.548473	NaN
	1.276655	0.548475	NaN
	1.276655	0.613296	NaN
	1.305816	0.613296	NaN
	1.305816	0.613296	NaN
	1.305816	0.671894	NaN
	1.305816	0.671892	NaN
	1.305816	0.725775	NaN
	1.305816	0.613296	NaN
	1.305816	0.671892	NaN
	1.305816	0.725775	NaN
	1.276654	0.725775	NaN
	1.305816	0.725775	NaN
	1.334340	0.725775	NaN
	1.305815	0.725775	NaN
	1.305815	0.725775	NaN
	1.305815	0.775922	NaN
	1.305815	0.823022	NaN
	1.276654	0.775922	NaN
	1.276654	0.775922	NaN
	1.276653	0.775922	NaN
	1.276654	0.725775	NaN
	1.246811	0.775924	NaN
	1.246811	0.775922	NaN
	1.246811	0.775922	NaN
	1.246811	0.775922	NaN
	1.246811	0.775922	NaN
	1.184872	0.775922	NaN
	1.184872	0.775922	NaN
	1.184872	0.775922	NaN
	1.184872	0.775922	NaN
	1.152655	0.775921	NaN
	1.152655	0.823020	NaN
	1.119511	0.775921	NaN
	1.119511	0.775921	NaN
	1.119511	0.775921	NaN
	1.085356	0.775921	NaN
	1.085356	0.775921	NaN
	1.050091	0.775921	NaN
	1.013598	0.775921	NaN
	1.013598	0.775921	NaN
	0.975743	0.725771	NaN
	0.975743	0.725771	NaN
	0.936359	0.725771	NaN
	0.936359	0.725771	NaN
	0.895242	0.725771	NaN
	0.895242	0.671888	NaN
	0.852145	0.671888	NaN
	0.852145	0.671888	NaN
	0.806749	0.725769	NaN
	0.806749	0.725769	NaN
	0.758642	0.725769	NaN
	0.758642	0.725769	NaN
	0.707270	0.725769	NaN
	0.707270	0.725769	NaN
	0.651860	0.671886	NaN
	0.651860	0.671886	NaN
	0.591282	0.671886	NaN
	0.591282	0.613288	NaN
	0.591282	0.671886	NaN
	0.523744	0.613288	NaN
	0.523744	0.548463	NaN
	0.523744	0.474874	NaN
	0.523744	0.548463	NaN
	0.446095	0.548463	NaN
	0.446095	0.548463	NaN
	0.446095	0.548463	NaN
	0.351702	0.474871	NaN
	0.219966	0.474871	NaN
	0.219966	0.474871	0.038359
	0.219966	0.387547	0.277090
	0.219971	0.387547	0.038359
	NaN	0.387547	0.277088
	NaN	0.273648	0.277088
	NaN	0.273648	0.277088
	NaN	0.273648	0.277088
	NaN	0.273648	0.389980
	NaN	0.273648	0.389980
	NaN	NaN	0.389980
	NaN	NaN	0.389980
	NaN	NaN	0.476856
	NaN	NaN	0.550180
	NaN	NaN	0.476855
	NaN	NaN	0.476855
	NaN	NaN	0.550179
	NaN	NaN	0.550179
	NaN	NaN	0.614821
	NaN	NaN	0.673284
	NaN	NaN	0.673284
	NaN	NaN	0.614820
	NaN	NaN	0.614820
	NaN	NaN	0.614820
	NaN	NaN	0.673283
	NaN	NaN	0.673283
	NaN	NaN	0.673283
	NaN	NaN	0.673283
	NaN	NaN	0.673283
	NaN	NaN	0.673283
	NaN	NaN	0.727060
	NaN	NaN	0.727060
	NaN	NaN	0.727060
	NaN	NaN	0.727060
	NaN	NaN	0.777125
	NaN	NaN	0.727060
	NaN	NaN	0.777125
	NaN	NaN	0.777125
	NaN	NaN	0.777125
	NaN	NaN	0.673282
	NaN	NaN	0.777125
	NaN	NaN	0.777125
	NaN	NaN	0.777125
	NaN	NaN	0.777125
	NaN	NaN	0.777125
	NaN	NaN	0.777125
	NaN	NaN	0.727059
	NaN	NaN	0.727059
	NaN	NaN	0.727059
	NaN	NaN	0.727059
	NaN	NaN	0.727059
	NaN	NaN	0.673282
	NaN	NaN	0.727059
	NaN	NaN	0.673282
	NaN	NaN	0.727059
	NaN	NaN	0.673282
	NaN	NaN	0.727059
	NaN	NaN	0.673282
	NaN	NaN	0.673282
	NaN	NaN	0.673282
	NaN	NaN	0.673282
	NaN	NaN	0.673282
	NaN	NaN	0.673282
	NaN	NaN	0.673282
	NaN	NaN	0.614819
	NaN	NaN	0.614819
	NaN	NaN	0.614819
	NaN	NaN	0.614819
	NaN	NaN	0.614819
	NaN	NaN	0.614819
	NaN	NaN	0.550178
	NaN	NaN	0.550178
	NaN	NaN	0.550178
	NaN	NaN	0.550178
	NaN	NaN	0.550178
	NaN	NaN	0.476853
	NaN	NaN	0.476853
	NaN	NaN	0.476854
	NaN	NaN	0.476854
	NaN	NaN	0.389977
	NaN	NaN	0.389978
	NaN	NaN	0.389977
	NaN	NaN	0.277084
	NaN	NaN	0.277084
	NaN	NaN	0.277084
	NaN	NaN	0.277084
	NaN	NaN	0.038330
	0.219960	NaN	0.038330
	NaN	NaN	0.038330
	0.219960	NaN	0.038330
	0.219960	NaN	0.038330
	0.219960	NaN	0.038345
	0.219960	0.273653	0.038345
	0.351695	0.273653	0.038345
	0.351698	0.273653	0.038345
	0.446092	0.273653	NaN
	0.351695	0.387551	NaN
	0.446092	0.387551	NaN
	0.446092	0.387551	NaN
	0.523742	0.387551	NaN
	0.523742	0.474874	NaN
	0.523742	0.387551	NaN
	0.523742	0.474874	NaN
	0.523742	0.474874	NaN
	0.591280	0.474874	NaN
	0.591280	0.474874	NaN
	0.591280	0.474874	NaN
	0.591280	0.474874	NaN
	0.651858	0.548466	NaN
	0.707268	0.548466	NaN
	0.707268	0.548466	NaN
	0.707268	0.548466	NaN
	0.707268	0.548466	NaN
	0.758640	0.548466	NaN
	0.758640	0.548466	NaN
	0.758640	0.548466	NaN
	0.806748	0.548466	NaN
	0.806748	0.548466	NaN
	0.852145	0.548468	NaN
	0.806748	0.613290	NaN
	0.852145	0.548468	NaN
	0.895242	0.548468	NaN
	0.895242	0.613292	NaN
	0.895242	0.548468	NaN
	0.895242	0.613290	NaN
	0.936357	0.548468	NaN
	0.936357	0.613292	NaN
	0.936357	0.613292	NaN
	0.936357	0.613292	NaN
	1.013598	0.613292	NaN
	1.013598	0.613292	NaN
	1.013598	0.613292	NaN
	1.050090	0.613292	NaN
	1.050090	0.613292	NaN
	1.050090	0.613292	NaN
	1.050090	0.548471	NaN
	1.085356	0.613292	NaN
	1.050090	0.548471	NaN
	1.085356	0.548471	NaN
	1.085355	0.548471	NaN
	1.119511	0.548471	NaN
	1.119511	0.548471	NaN
	1.119511	0.548471	NaN
	1.152654	0.548471	NaN
	1.152654	0.548471	NaN
	1.152654	0.548471	NaN
	1.184872	0.548471	NaN
	1.184872	0.548471	NaN
	1.216235	0.474882	NaN
	1.216235	0.548471	NaN
	1.184872	0.474882	NaN
	1.216235	0.474882	NaN
	1.216235	0.387561	NaN
	1.216235	0.474882	NaN
	1.216235	0.387561	NaN
	1.216235	0.387561	NaN
	1.216235	0.387561	NaN
	1.216235	0.474882	NaN
	1.216235	0.387561	NaN
	1.216235	0.387561	NaN
	1.216235	0.387561	NaN
	1.216235	NaN	NaN
	1.246811	NaN	NaN
	1.246811	NaN	NaN
	1.246811	NaN	NaN
	1.246811	NaN	NaN
	1.246811	NaN	NaN
	1.216235	NaN	NaN
	1.216235	NaN	NaN
	1.246811	NaN	NaN
	1.246811	NaN	NaN
	1.216236	NaN	NaN
	1.246811	NaN	NaN
	1.246811	NaN	NaN
	1.216236	NaN	NaN
	1.216236	NaN	0.038272
	1.216236	NaN	0.038272
	1.216236	NaN	0.038272
	1.184873	NaN	0.038272
	1.216236	NaN	0.277076
	1.216236	NaN	0.038272
	1.216236	NaN	0.277076
	1.184873	NaN	0.277076
	1.184873	NaN	0.389971
	1.184873	NaN	0.476848
	1.184873	NaN	0.476848
	1.184873	NaN	0.476848
	1.184873	NaN	0.389971
	1.152656	NaN	0.476848
	1.152656	NaN	0.476848
	1.152656	NaN	0.476848
	1.152656	NaN	0.476848
	1.152656	NaN	0.550173
	1.119512	NaN	0.550173
	1.085357	NaN	0.476848
	1.085357	NaN	0.550174
	1.085357	NaN	0.614815
	1.085357	NaN	0.614815
	1.085357	NaN	0.614815
	1.085357	NaN	0.550173
	1.050092	NaN	0.550173
	1.050092	NaN	0.550173
	1.050092	NaN	0.550173
	1.050092	NaN	0.550173
	1.013599	NaN	0.614814
	1.050092	NaN	0.614814
	1.013601	NaN	0.614814
	1.013601	NaN	0.614814
	0.975744	NaN	0.614814
	0.975744	NaN	0.614814
	1.013601	NaN	0.673279
	0.975744	NaN	0.614814
	0.975744	NaN	0.614814
	0.975744	NaN	0.614814
	0.936360	NaN	0.673279
	0.936360	NaN	0.673279
	0.936360	NaN	0.673279
	0.936360	NaN	0.673279
	0.936360	NaN	0.673279
	0.936360	NaN	0.614814
	0.936360	NaN	0.614814
	0.936360	NaN	0.673279
	0.895243	NaN	0.614814
	0.936360	NaN	0.614814
	0.936360	NaN	0.614814
	0.895243	NaN	0.614814
	0.895243	NaN	0.614814
	0.936360	NaN	0.550173
	0.936360	NaN	0.614815
	0.936360	NaN	0.614814
	0.895243	NaN	0.614815
	0.895243	NaN	0.550173
	0.895243	NaN	0.614815
	0.895243	NaN	0.550173
	0.936359	NaN	0.550173
	0.936359	NaN	0.550174
	0.936359	NaN	0.550173
	0.936359	NaN	0.476848
	0.936359	NaN	0.476848
	0.936359	NaN	0.550174
	0.936359	NaN	0.476848
	0.936359	NaN	0.476848
	0.936359	NaN	0.476848
	0.936359	NaN	0.476848
	0.936359	NaN	0.476848
	0.936359	NaN	0.389971
	0.936359	NaN	0.389971
	0.936359	NaN	0.389971
	0.936359	NaN	0.389971
	0.936359	NaN	0.277076
	0.936359	NaN	0.277076
	0.936359	NaN	0.277076
	0.975743	NaN	0.277076
	0.936357	NaN	0.277076
	0.936357	NaN	0.038272
	0.936357	NaN	0.038272
	0.936357	NaN	0.038272
	0.936357	NaN	0.038272
	0.936357	NaN	0.038272
	0.936357	NaN	NaN
	0.936357	NaN	NaN
	0.936357	NaN	NaN
	0.975742	NaN	NaN
	0.975742	NaN	NaN
	0.975742	NaN	NaN
	0.975742	NaN	NaN
	0.975742	NaN	NaN
	0.975742	NaN	NaN
	0.975742	NaN	NaN
	0.975742	NaN	NaN
	0.975742	NaN	NaN
	0.975742	NaN	NaN
	0.936356	NaN	NaN
	0.975742	NaN	NaN
	0.975742	NaN	NaN
	0.975742	NaN	NaN
	0.975742	NaN	NaN
	0.975742	NaN	NaN
	0.936356	NaN	NaN
	0.975742	0.387557	NaN
	0.936356	0.273667	NaN
	0.975742	0.387557	NaN
	0.975742	0.387557	NaN
	0.975742	0.387557	NaN
	0.975742	0.387557	NaN
	0.975742	0.387557	NaN
	0.936357	0.387557	NaN
	0.936356	0.387557	NaN
	0.895241	0.387557	NaN
	0.895241	0.474877	NaN
	0.895241	0.474877	NaN
	0.895241	0.474877	NaN
	0.936357	0.387557	NaN
	0.936357	0.474877	NaN
	0.936357	0.474877	NaN
	0.936357	0.474877	NaN
	0.895242	0.387557	NaN
	0.895242	0.387557	NaN
	0.895242	0.387557	NaN
	0.895242	0.474877	NaN
	0.895242	0.474877	NaN
	0.895242	0.548468	NaN
	0.852144	0.474877	NaN
	0.895242	0.548468	NaN
	0.895242	0.548468	NaN
	0.852145	0.474877	NaN
	0.852145	0.548468	NaN
	0.852145	0.474877	NaN
	0.852145	0.474877	NaN
	0.852145	0.474877	NaN
	0.806749	0.548466	NaN
	0.806749	0.474877	NaN
	0.806749	0.548466	NaN
	0.806749	0.548466	NaN
	0.806749	0.548466	NaN
	0.806749	0.548466	NaN
	0.806749	0.548466	NaN
	0.758642	0.474874	NaN
	0.806751	0.548466	NaN
	0.806751	0.548466	NaN
	0.758644	0.474874	NaN
	0.758644	0.548466	NaN
	0.758644	0.474874	NaN
	0.707270	0.474874	NaN
	0.707270	0.474874	NaN
	0.707270	0.474874	NaN
	0.707272	0.474874	NaN
	0.758644	0.474874	NaN
	0.707272	0.474874	NaN
	0.707272	0.474874	0.038359
	0.707272	0.474874	NaN
	0.707272	0.474874	NaN
	0.651864	0.474874	0.038345
	0.651864	0.474874	0.038345
	0.707274	0.387551	0.038345
	0.651864	0.474874	0.277088
	0.651864	0.387551	0.277088
	0.651866	0.387551	0.277088
	0.651864	0.387551	0.277088
	0.651866	0.387551	0.277088
	0.651866	0.387551	0.389980
	0.651866	0.387551	0.389980
	0.651866	0.273653	0.389980
	0.651866	0.273653	0.389980
	0.651866	0.387551	0.389980
	0.651866	0.273653	0.389980
	0.591289	0.273653	0.389980
	0.591289	0.273653	0.389980
	0.591289	0.273653	0.476855
	0.591289	0.273653	0.476855
	0.591289	0.273653	0.476855
	0.591289	0.273653	0.476855
	0.591289	NaN	0.476855
	0.591289	NaN	0.476855
	0.591289	NaN	0.550179
	0.591289	NaN	0.550179
	0.591289	NaN	0.550179
	0.591289	NaN	0.550179
	0.591289	NaN	0.550179
	0.523752	NaN	0.550179
	0.591289	NaN	0.550179
	0.591289	NaN	0.550179
	0.523752	NaN	0.550179
	0.591289	NaN	0.550179
	0.523752	NaN	0.614820
	0.591289	NaN	0.614820
	0.523752	NaN	0.614820
	0.591289	NaN	0.614820
	0.523752	NaN	0.614820
	0.591289	NaN	0.614820
	0.523752	NaN	0.614820
	0.446101	NaN	0.614820
	0.523752	NaN	0.614820
	0.446101	NaN	0.614820
	0.523752	NaN	0.614820
	0.523752	NaN	0.614820
	0.446101	NaN	0.614820
	0.523749	NaN	0.614820
	0.523749	NaN	0.614820
	0.523749	NaN	0.614820
	0.523749	NaN	0.614820
	0.523749	NaN	0.673283
	0.523749	NaN	0.614820
	0.523749	NaN	0.550178
	0.523749	NaN	0.614820
	0.523749	NaN	0.614820
	0.523749	NaN	0.550178
	0.523749	NaN	0.614820
	0.523749	NaN	0.550178
	0.446098	NaN	0.550178
	0.523749	NaN	0.550178
	0.523749	NaN	0.550178
	0.446098	NaN	0.550178
	0.591287	NaN	0.550178
	0.523747	NaN	0.550178
	0.523747	NaN	0.550178
	0.523747	NaN	0.550178
	0.446098	NaN	0.550178
	0.523747	NaN	0.476854
	0.523747	NaN	0.550178
	0.523747	NaN	0.476854
	0.523747	NaN	0.476854
	0.523747	NaN	0.476854
	0.523747	NaN	0.476854
	0.523747	NaN	0.389978
	0.591284	NaN	0.389978
	0.523747	NaN	0.277084
	0.591284	NaN	0.389978
	0.591284	NaN	0.277084
	0.591284	NaN	0.277084
	0.591284	NaN	0.277084
	0.523744	NaN	0.277084
	0.591284	NaN	0.038330
	0.591282	NaN	0.038330
	0.651862	NaN	NaN
	0.591282	0.273658	0.038330
	0.591282	0.273658	0.038330
	0.591282	0.387551	0.038330
	0.591282	0.273658	NaN
	0.591282	0.273658	NaN
	0.651860	0.273658	NaN
	0.651860	0.273658	NaN
	0.651860	0.387551	NaN
	0.651860	0.387551	NaN
	0.591280	0.387551	NaN
	0.591280	0.273658	NaN
	0.651858	0.387551	NaN
	0.651858	0.273658	NaN
	0.651858	0.387554	NaN
	0.651858	0.273658	NaN
	0.651858	0.387554	NaN
	0.651858	0.474874	NaN
	0.707266	0.474874	NaN
	0.707266	0.474874	NaN
	0.707266	0.474874	NaN
	0.707266	0.387554	NaN
	0.707266	0.474874	NaN
	0.707266	0.387554	NaN
	0.758639	0.387554	NaN
	0.758639	0.387554	NaN
	0.758639	0.387554	NaN
	0.758639	0.387554	NaN
	0.758639	0.387554	NaN
	0.758639	0.387554	NaN
	0.806746	0.387554	NaN
	0.758637	0.387554	NaN
	0.806746	0.474877	NaN
	0.806746	0.474877	NaN
	0.806746	0.474877	NaN
	0.806746	0.387554	NaN
	0.758637	0.387554	NaN
	0.806746	0.273662	NaN
	0.806746	0.387554	NaN
	0.806746	0.273662	NaN
	0.852142	0.273662	NaN
	0.852142	0.387554	NaN
	0.852142	0.387554	NaN
	0.852142	0.273662	NaN
	0.895239	0.273662	NaN
	0.852142	0.273662	NaN
	0.895239	0.273662	NaN
	0.852142	0.273662	NaN
	0.895239	0.273662	NaN
	0.895239	0.273662	NaN
	0.895239	0.273662	NaN
	0.895239	NaN	NaN
	0.895239	NaN	NaN
	0.895239	NaN	NaN
	0.936356	NaN	NaN
	0.936356	NaN	NaN
	0.975740	NaN	NaN
	0.975740	NaN	NaN
	0.975740	NaN	NaN
	0.975740	NaN	NaN
	0.975740	NaN	NaN
	0.975740	NaN	NaN
	0.975740	NaN	NaN
	1.013597	NaN	NaN
	1.013597	NaN	NaN
	0.975740	NaN	NaN
	1.013597	NaN	NaN
	0.975740	NaN	NaN
	0.975742	NaN	NaN
	1.013597	NaN	NaN
	1.013597	NaN	NaN
	1.013597	NaN	NaN
	1.013597	NaN	NaN
	1.013597	NaN	0.038272
	0.975742	NaN	0.038272
	1.013597	NaN	0.038272
	0.975742	NaN	0.038272
	0.975742	NaN	0.038272
	1.013598	NaN	0.038272
	0.975742	NaN	0.038272
	0.975742	NaN	0.277076
	0.975742	NaN	0.277076
	0.975742	NaN	0.277076
	1.013598	NaN	0.277076
	0.975742	NaN	0.277076
	0.975742	NaN	0.277076
	1.013598	NaN	0.277076
	1.013598	NaN	0.389971
	1.013598	NaN	0.389971
	0.975743	NaN	0.389971
	1.013598	NaN	0.389971
	0.975743	NaN	0.389971
	0.975743	NaN	0.389971
	0.975743	NaN	0.389971
	0.975743	NaN	0.389971
	0.975743	NaN	0.389971
	0.975743	NaN	0.389971
	0.975743	NaN	0.389971
	0.975743	NaN	0.389971
	1.013599	NaN	0.389971
	0.975743	NaN	0.389971
	0.975743	NaN	0.476848
	0.975743	NaN	0.389971
	0.975743	NaN	0.389971
	0.975743	NaN	0.476849
	0.936359	NaN	0.389971
	0.936359	NaN	0.476848
	0.936359	NaN	0.476849
	0.936359	NaN	0.476848
	0.936359	NaN	0.476848
	0.936359	NaN	0.476848
	0.936359	NaN	0.476849
	0.936359	NaN	0.389971
	0.936359	NaN	0.476848
	0.936359	NaN	0.389971
	0.936359	NaN	0.476848
	0.936359	NaN	0.476848
	0.936359	NaN	0.476849
	0.936359	NaN	0.389971
	0.936359	NaN	0.389971
	0.936359	NaN	0.389971
	0.936359	NaN	0.476849
	0.936359	NaN	0.476849
	0.936359	NaN	0.476849
	0.936359	NaN	0.476849
	0.936359	NaN	0.476849
	0.936359	NaN	0.476849
	0.936359	NaN	0.476849
	0.936359	NaN	0.476849
	0.936359	NaN	0.476849
	0.936359	NaN	0.476849
	0.936359	NaN	0.476849
	0.936359	NaN	0.389973
	0.936359	NaN	0.389973
	0.936359	NaN	0.389973
	0.936359	NaN	0.389973
	0.936359	NaN	0.389973
	0.936359	NaN	0.389973
	0.975744	NaN	0.277078
	0.936359	NaN	0.277078
	0.936359	NaN	0.277078
	0.936359	NaN	0.277078
	0.936359	NaN	0.277078
	0.936359	NaN	0.277078
	0.936359	NaN	0.277078
	0.936359	NaN	0.277078
	0.936359	NaN	0.038272
	0.936359	NaN	0.038287
	0.936359	NaN	0.277078
	0.936359	NaN	0.389974
	0.895243	NaN	0.277080
	0.895243	NaN	0.038287
	0.895243	NaN	NaN
	0.806749	NaN	NaN
	0.806748	0.273667	NaN
	0.758637	0.548471	NaN
	0.758635	0.671890	NaN
	0.758634	0.725773	NaN
	0.852138	0.725773	NaN
	0.936350	0.725775	NaN
	1.013591	0.823022	NaN
	1.184864	0.823022	NaN
	1.216226	0.867568	NaN
	1.216225	0.867570	NaN
	1.276643	0.823024	NaN
	1.334328	0.725776	NaN
	1.362255	0.613298	NaN
	1.305802	0.387567	NaN
	1.334326	0.273677	NaN
	1.305801	NaN	NaN
	1.216220	NaN	NaN
	1.216220	NaN	NaN
	1.184855	NaN	NaN
	1.246795	0.273677	NaN
	1.276638	0.273677	NaN
	1.276637	0.387564	NaN
	1.305797	NaN	NaN
	1.334321	NaN	NaN
	1.305795	NaN	0.389966
	1.276633	NaN	0.550170
	1.305794	NaN	0.550170
	1.246789	NaN	0.389964
	1.276631	NaN	0.389963
	1.216211	NaN	0.277062
	1.184846	NaN	0.038156
	1.152628	NaN	0.389963
	1.152627	NaN	0.038199
	1.152626	NaN	0.038214
	1.119481	NaN	0.389966
	1.119480	NaN	0.614812
	1.119478	NaN	0.824147
	1.050054	NaN	0.951388
	1.013559	NaN	1.098347
	1.085318	NaN	1.287713
	1.085315	NaN	1.372634
	1.216199	NaN	1.399798
	1.216198	NaN	1.344924
	1.334304	NaN	1.227841
	1.276617	NaN	1.132110
	1.305779	NaN	1.063513
	1.334306	NaN	1.063514
	1.305783	NaN	1.063514
	1.276624	NaN	0.990176
	1.305788	NaN	1.063515
	1.276630	NaN	1.132113
	1.276633	NaN	1.164898
	1.334323	NaN	1.132113
	1.216221	NaN	1.098350
	1.119499	NaN	1.027501
	1.119503	NaN	0.910955
	1.119506	NaN	0.824152
	1.085354	NaN	0.673280
	1.050091	NaN	0.550177
	1.013601	NaN	0.277084
	1.013603	NaN	0.277086
	0.975750	NaN	0.038359
	1.013607	NaN	0.038388
	0.975754	NaN	0.389985
	0.895255	NaN	0.277098
	0.895256	NaN	NaN
	0.895258	0.387561	NaN
	0.852162	0.613292	NaN
	0.852163	0.725771	NaN
	0.895261	0.867564	NaN
	0.895262	1.026596	NaN
	1.050109	1.097505	NaN
	1.085375	1.196010	NaN
	0.975766	1.227089	NaN
	0.852170	1.315930	NaN
	0.806777	1.371965	NaN
	0.758671	1.399141	NaN
	0.707301	1.425799	NaN
	0.707301	1.451968	NaN
	0.758673	1.451968	NaN
	0.758675	1.502940	NaN
	0.651900	1.502940	NaN
	0.591326	1.527788	NaN
	0.591326	1.527788	NaN
	0.523791	1.477673	NaN
	0.523794	1.425799	NaN
	0.523794	1.451967	NaN
	0.523794	1.425798	NaN
	0.446151	1.399140	NaN
	0.351772	1.371963	NaN
	0.351772	1.371963	0.277112
	0.446151	1.371963	0.389997
	0.351772	1.315928	0.476869
	0.351772	1.257398	0.476868
	0.351772	1.257398	0.550190
	0.446151	1.196007	0.476867
	0.220077	1.164098	0.614830
	0.446151	1.131290	0.673292
	0.446151	1.097500	0.777133
	0.351768	1.097499	0.824162
	0.351768	1.062637	0.868648
	0.351768	1.026590	0.910964
	0.351768	0.989231	0.951400
	NaN	1.026589	0.951400
	NaN	0.950404	1.027509
	0.220072	0.909922	0.990186
	NaN	0.867554	0.990186
	NaN	0.775908	1.027509
	NaN	0.725757	1.027509
	NaN	0.671873	1.063523
	NaN	0.671873	1.164904
	NaN	0.548449	1.196791
	NaN	0.474855	1.227849
	NaN	0.387531	1.258142
	NaN	0.273625	1.258141
	NaN	NaN	1.258141
	NaN	NaN	1.227848
	NaN	NaN	1.227848
	NaN	NaN	1.227848
	NaN	NaN	1.196789
	NaN	NaN	1.196789
	NaN	NaN	1.196789
	NaN	NaN	1.227848
	NaN	NaN	1.227847
	NaN	NaN	1.227847
	NaN	NaN	1.258139
	NaN	NaN	1.227847
	NaN	NaN	1.258139
	NaN	NaN	1.227847
	NaN	NaN	1.227847
	NaN	NaN	1.227847
	NaN	NaN	1.196787
	NaN	NaN	1.227846
	NaN	NaN	1.227846
	NaN	NaN	1.227846
	NaN	NaN	1.227846
	NaN	NaN	1.227846
	NaN	NaN	1.258139
	NaN	NaN	1.258139
	NaN	NaN	1.258139
	NaN	NaN	1.227846
	NaN	NaN	1.227846
	NaN	NaN	1.227846
	NaN	NaN	1.258138
	NaN	NaN	1.227845
	NaN	NaN	1.258138
	NaN	NaN	1.227845
	NaN	NaN	1.227845
	NaN	NaN	1.227845
	NaN	NaN	1.227845
	NaN	NaN	1.196786
	NaN	NaN	1.164899
	NaN	NaN	1.196786
	NaN	NaN	1.196786
	NaN	NaN	1.196786
	NaN	NaN	1.196786
	NaN	NaN	1.196786
	NaN	NaN	1.164899
	NaN	NaN	1.164899
	NaN	NaN	1.164899
	NaN	NaN	1.098352
	NaN	NaN	1.132114
	NaN	NaN	1.098352
	NaN	NaN	1.132115
	NaN	NaN	1.132115
	NaN	NaN	1.132115
	NaN	NaN	1.098352
	NaN	NaN	1.098352
	NaN	NaN	1.063518
	NaN	NaN	1.063518
	NaN	NaN	1.063518
	NaN	NaN	1.063518
	NaN	NaN	1.063518
	NaN	NaN	1.063518
	NaN	NaN	1.027503
	NaN	NaN	1.027503
	NaN	NaN	1.027503
	NaN	NaN	1.027503
	NaN	NaN	0.951393
	NaN	NaN	0.990180
	NaN	NaN	0.951393
	NaN	NaN	0.910957
	NaN	NaN	0.951394
	NaN	NaN	0.951394
	NaN	NaN	0.951394
	NaN	NaN	0.951394
	NaN	NaN	0.951394
	NaN	NaN	0.910958
	NaN	NaN	0.868641
	NaN	NaN	0.868641
	NaN	NaN	0.824154
	NaN	NaN	0.824154
	NaN	NaN	0.868641
	NaN	NaN	0.868641
	NaN	NaN	0.824155
	NaN	NaN	0.777126
	NaN	NaN	0.777126
	NaN	NaN	0.777126
	NaN	NaN	0.777126
	NaN	NaN	0.777126
	NaN	NaN	0.727062
	NaN	NaN	0.727062
	NaN	NaN	0.673285
	NaN	NaN	0.673285
	NaN	NaN	0.614822
	NaN	NaN	0.550181
	NaN	NaN	0.550181
	NaN	NaN	0.550181
	NaN	NaN	0.476857
	NaN	NaN	0.476857
	NaN	0.273648	0.389983
	NaN	0.273648	0.389983
	NaN	0.387544	0.277092
	NaN	0.474868	0.277092
	NaN	0.474868	0.038388
	NaN	0.474868	NaN
	NaN	0.474868	NaN
	NaN	0.548461	NaN
	NaN	0.548461	NaN
	NaN	0.671883	NaN
	NaN	0.671883	NaN
	NaN	0.671883	NaN
	NaN	0.725766	NaN
	NaN	0.725766	NaN
	NaN	0.775914	NaN
	NaN	0.775916	NaN
	NaN	0.775916	NaN
	NaN	0.823016	NaN
	NaN	0.823016	NaN
	NaN	0.867561	NaN
	NaN	0.823016	NaN
	NaN	0.823016	NaN
	NaN	0.823016	NaN
	NaN	0.823016	NaN
	NaN	0.867562	NaN
	NaN	0.867564	NaN
	NaN	0.909931	NaN
	NaN	0.909931	NaN
	NaN	0.909931	NaN
	NaN	0.909932	NaN
	NaN	0.950412	NaN
	NaN	0.909932	NaN
	NaN	0.989239	NaN
	NaN	0.989239	NaN
	NaN	1.026598	NaN
	0.219930	1.062644	NaN
	0.351676	1.062644	NaN
	0.446075	1.062644	NaN
	0.523727	1.026599	NaN
	0.591267	1.062645	NaN
	0.651846	1.062645	NaN
	0.651844	1.097508	NaN
	0.707254	1.062647	NaN
	0.758627	1.062647	NaN
	0.806735	1.062647	NaN
	0.852132	1.026601	NaN
	0.895229	1.026601	NaN
	0.936345	1.026603	NaN
	0.975730	0.989244	NaN
	1.013585	0.989244	NaN
	1.050077	0.950419	NaN
	1.085343	0.989245	NaN
	1.119498	0.989245	NaN
	1.152642	0.989245	NaN
	1.184858	0.989245	NaN
	1.246797	0.989245	NaN
	1.305802	0.950421	NaN
	1.334326	0.909939	NaN
	1.389619	0.867573	NaN
	1.442795	0.867573	NaN
	1.442795	0.867573	NaN
	1.468660	0.867573	NaN
	1.519072	0.775929	NaN
	1.543660	0.725780	NaN
	1.567862	0.775929	NaN
	1.591698	0.725782	NaN
	1.591698	0.725782	NaN
	1.591698	0.725782	NaN
	1.615181	0.725782	NaN
	1.615181	0.775931	NaN
	1.638328	0.775931	NaN
	1.638328	0.775931	NaN
	1.638328	0.775931	NaN
	1.638328	0.775929	NaN
	1.661152	0.775929	NaN
	1.638328	0.725782	NaN
	1.661152	0.671900	NaN
	1.638328	0.671900	NaN
	1.683667	0.725780	NaN
	1.661153	0.725780	NaN
	1.705885	0.725780	NaN
	1.683668	0.725780	NaN
	1.683668	0.671898	NaN
	1.683668	0.725778	NaN
	1.683668	0.613300	NaN
	1.661153	0.671896	NaN
	1.683669	0.548478	NaN
	1.661153	0.548478	NaN
	1.683669	0.548478	NaN
	1.661154	0.474887	NaN
	1.638330	0.387571	NaN
	1.661155	0.273681	NaN
	1.638331	0.273681	NaN
	1.591701	NaN	NaN
	1.567867	NaN	NaN
	1.543664	NaN	NaN
	1.519076	NaN	NaN
	1.494083	NaN	NaN
	1.468666	NaN	0.038214
	1.442800	NaN	0.038214
	1.416462	NaN	0.038214
	1.389625	NaN	NaN
	1.389625	NaN	NaN
	1.389626	NaN	NaN
	1.334333	NaN	NaN
	1.362261	NaN	NaN
	1.334334	NaN	NaN
	1.305810	NaN	NaN
	1.276648	NaN	0.476843
	1.276649	NaN	0.727054
	1.276649	NaN	0.868636
	1.246807	NaN	0.910952
	1.216232	NaN	0.910952
	1.184868	NaN	0.910952
	1.184868	NaN	0.910952
	1.184869	NaN	0.824148
	1.152652	NaN	0.777119
	1.119508	NaN	0.824148
	1.085354	NaN	0.868635
	1.119510	NaN	0.910952
	1.085355	NaN	0.990175
	1.050090	NaN	1.027499
	1.050090	NaN	1.098348
	1.013598	NaN	1.132111
	0.975743	NaN	1.132111
	0.975743	NaN	1.098348
	0.936359	NaN	1.027499
	0.895243	NaN	1.027499
	0.852145	NaN	1.098348
	0.806749	NaN	1.098348
	0.806749	NaN	1.098348
	0.758642	NaN	1.098348
	0.758642	NaN	1.098348
	0.707270	NaN	1.132111
	0.758644	NaN	1.164896
	0.651862	NaN	1.164896
	0.707272	NaN	1.164896
	0.591284	NaN	1.132111
	0.651864	NaN	1.164896
	0.591287	NaN	1.164896
	0.446098	NaN	1.196783
	0.523749	NaN	1.164896
	0.523749	NaN	1.196783
	0.523749	NaN	1.196783
	0.446101	NaN	1.196783
	0.523752	NaN	1.196783
	0.523752	NaN	1.164896
	0.446104	NaN	1.164896
	0.446104	NaN	1.164896
	0.446104	NaN	1.196783
	0.446104	NaN	1.164896
	0.351713	NaN	1.196784
	0.219989	NaN	1.196784
	0.219989	NaN	1.196784
	0.351717	NaN	1.164896
	0.351717	NaN	1.164896
	0.351717	NaN	1.164897
	0.351717	NaN	1.132112
	0.351717	NaN	1.132112
	0.219995	NaN	1.132112
	0.219995	NaN	1.132112
	0.351717	NaN	1.132112
	0.219995	NaN	1.098349
	0.219995	NaN	1.098349
	0.351720	NaN	1.132112
	0.351720	NaN	1.132112
	0.351720	NaN	1.063515
	0.446113	NaN	1.063515
	0.446110	NaN	1.063515
	0.523759	NaN	1.063515
	0.446110	NaN	1.063515
	0.591295	NaN	1.063515
	0.651872	NaN	1.063515
	0.651872	NaN	1.027501
	0.707279	NaN	1.027501
	0.758651	NaN	1.027501
	0.651870	NaN	1.027501
	0.758651	NaN	0.990177
	0.758651	NaN	0.990177
	0.806757	NaN	0.951391
	0.806756	NaN	0.951391
	0.852153	NaN	0.910955
	0.852151	NaN	0.910955
	0.852151	NaN	0.868637
	0.852151	NaN	0.868637
	0.936364	NaN	0.824151
	0.895248	NaN	0.824151
	0.975748	NaN	0.777122
	0.975748	NaN	0.777122
	0.975748	NaN	0.777122
	0.975748	NaN	0.777122
	0.975748	NaN	0.727057
	1.013603	NaN	0.727057
	1.013603	NaN	0.673280
	1.013603	NaN	0.673280
	1.050095	NaN	0.614816
	1.050095	NaN	0.614816
	1.085360	NaN	0.550175
	1.085360	NaN	0.476849
	1.119514	NaN	0.389973
	1.119514	NaN	0.277078
	1.152657	NaN	0.277078
	1.152657	NaN	0.038287
	1.184874	NaN	NaN
	1.152656	NaN	NaN
	1.184874	NaN	NaN
	1.184873	NaN	NaN
	1.184873	NaN	NaN
	1.216236	NaN	NaN
	1.216236	NaN	NaN
	1.246811	0.273677	NaN
	1.246811	0.273677	NaN
	1.246811	0.387564	NaN
	1.246810	0.387567	NaN
	1.246810	0.474887	NaN
	1.276652	0.474887	NaN
	1.246809	0.474887	NaN
	1.246809	0.613298	NaN
	1.276651	0.613298	NaN
	1.246808	0.671896	NaN
	1.246808	0.671896	NaN
	1.246808	0.725776	NaN
	1.246808	0.671896	NaN
	1.246807	0.775926	NaN
	1.216232	0.867570	NaN
	1.276650	0.867570	NaN
	1.246807	0.950416	NaN
	1.216232	0.823024	NaN
	1.216232	0.867568	NaN
	1.216231	0.775924	NaN
	1.216232	0.950416	NaN
	1.246807	0.823022	NaN
	1.216232	0.909935	NaN
	1.216231	0.867568	NaN
	1.216231	0.867568	NaN
	1.184867	0.950416	NaN
	1.184866	0.950416	NaN
	1.184866	0.867568	NaN
	1.152649	0.867568	NaN
	1.184866	0.867568	NaN
	1.119505	0.823022	NaN
	1.119505	0.823022	NaN
	1.085350	0.823022	NaN
	1.085350	0.823022	NaN
	1.085350	0.775922	NaN
	1.013592	0.775922	NaN
	1.013592	0.823020	NaN
	0.975736	0.823020	NaN
	0.975736	0.823020	NaN
	0.975736	0.823020	NaN
	0.895235	0.775921	NaN
	0.895235	0.775921	NaN
	0.936352	0.775921	NaN
	0.852138	0.823019	NaN
	0.852138	0.823019	NaN
	0.806741	0.823019	NaN
	0.806741	0.823019	NaN
	0.758634	0.823019	NaN
	0.758634	0.867565	NaN
	0.651850	0.909932	NaN
	0.591269	0.867564	NaN
	0.523729	0.823019	NaN
	0.523729	0.823019	NaN
	0.523729	0.823019	NaN
	0.446078	0.775919	NaN
	0.219930	0.775919	NaN
	0.351680	0.775919	NaN
	0.219936	0.775919	NaN
	0.219936	0.775919	NaN
	NaN	0.725769	NaN
	NaN	0.823017	NaN
	NaN	0.725769	NaN
	NaN	0.775917	NaN
	NaN	0.775917	NaN
	NaN	0.775917	NaN
	NaN	0.725767	NaN
	NaN	0.725767	NaN
	NaN	0.725767	NaN
	NaN	0.671884	NaN
	NaN	0.671884	NaN
	NaN	0.671884	NaN
	NaN	0.613286	NaN
	NaN	0.613286	NaN
	NaN	0.613286	NaN
	NaN	0.613286	NaN
	NaN	0.548461	NaN
	NaN	0.548461	NaN
	NaN	0.474868	NaN
	NaN	0.474868	NaN
	NaN	0.474868	0.038388
	NaN	0.474868	0.038388
	NaN	0.387544	0.277092
	NaN	0.273648	0.277092
	NaN	0.273648	0.389983
	NaN	NaN	0.389983
	NaN	NaN	0.476857
	NaN	NaN	0.476857
	NaN	NaN	0.476857
	NaN	NaN	0.550181
	NaN	NaN	0.550181
	NaN	NaN	0.614822
	NaN	NaN	0.727062
	NaN	NaN	0.727062
	NaN	NaN	0.727062
	NaN	NaN	0.727062
	NaN	NaN	0.727062
	NaN	NaN	0.727062
	NaN	NaN	0.777127
	NaN	NaN	0.824156
	NaN	NaN	0.824156
	NaN	NaN	0.824156
	NaN	NaN	0.868642
	NaN	NaN	0.910958
	NaN	NaN	0.824155
	NaN	NaN	0.868641
	NaN	NaN	0.868641
	NaN	NaN	0.868641
	NaN	NaN	0.868641
	NaN	NaN	0.868641
	NaN	NaN	0.910958
	NaN	NaN	0.910958
	NaN	NaN	0.910958
	NaN	NaN	0.910958
	NaN	NaN	0.910958
	NaN	NaN	0.910958
	NaN	NaN	0.910958
	NaN	NaN	0.951394
	NaN	NaN	0.910958
	NaN	NaN	0.910958
	NaN	NaN	0.951394
	NaN	NaN	0.951394
	NaN	NaN	0.951394
	NaN	NaN	0.951394
	NaN	NaN	0.951394
	NaN	NaN	0.910958
	NaN	NaN	0.951394
	NaN	NaN	0.951394
	NaN	NaN	0.951394
	NaN	NaN	0.951394
	NaN	NaN	0.951394
	NaN	NaN	0.951394
	NaN	NaN	0.951394
	NaN	NaN	0.951394
	NaN	NaN	0.951394
	NaN	NaN	0.951394
	NaN	NaN	0.951394
	NaN	NaN	0.910958
	NaN	NaN	0.951394
	NaN	NaN	0.868641
	NaN	NaN	0.868641
	0.219989	NaN	0.868641
	0.219989	NaN	0.868641
	0.219989	NaN	0.824154
	0.219989	NaN	0.824154
	0.219983	NaN	0.824154
	0.351713	NaN	0.824154
	0.351713	NaN	0.824154
	0.219983	NaN	0.777125
	0.446104	NaN	0.777125
	0.446104	NaN	0.777125
	0.446104	NaN	0.727061
	0.446104	NaN	0.727061
	0.351709	NaN	0.727061
	0.446104	NaN	0.673284
	0.446104	NaN	0.673284
	0.446101	NaN	0.673284
	0.523752	NaN	0.550179
	0.446101	NaN	0.550179
	0.446101	NaN	0.550179
	0.446101	NaN	0.476855
	0.523749	NaN	0.476855
	0.523749	NaN	0.550180
	0.523749	NaN	0.389980
	0.523749	NaN	0.389980
	0.523749	NaN	0.389980
	0.591287	NaN	0.389980
	0.591287	NaN	0.389980
	0.591287	0.273658	0.277088
	0.651864	0.273658	0.277088
	0.651864	0.273658	0.277088
	0.591284	0.387554	0.038359
	0.651862	0.387554	0.038359
	0.651862	0.387554	0.038359
	0.651862	0.474877	NaN
	0.707270	0.474877	NaN
	0.707270	0.474877	NaN
	0.707270	0.474877	NaN
	0.707270	0.474877	NaN
	0.651860	0.474877	NaN
	0.707270	0.548468	NaN
	0.758642	0.548468	NaN
	0.806749	0.548468	NaN
	0.806749	0.548468	NaN
	0.806749	0.548468	NaN
	0.806749	0.548468	NaN
	0.852145	0.613292	NaN
	0.852145	0.613292	NaN
	0.806748	0.613292	NaN
	0.895242	0.613292	NaN
	0.895242	0.613292	NaN
	0.852144	0.613292	NaN
	0.852144	0.613292	NaN
	0.895242	0.613292	NaN
	0.895241	0.613292	NaN
	0.895241	0.613292	NaN
	0.895241	0.671890	NaN
	0.936356	0.671890	NaN
	0.936356	0.671890	NaN
	0.936356	0.671890	NaN
	0.936356	0.671890	NaN
	0.975740	0.671890	NaN
	0.975740	0.671890	NaN
	0.936355	0.671890	NaN
	0.936355	0.613294	NaN
	0.936355	0.671890	NaN
	0.975739	0.671890	NaN
	0.975739	0.671890	NaN
	0.975739	0.671890	NaN
	0.975739	0.613294	NaN
	0.975739	0.671890	NaN
	0.975739	0.671890	NaN
	0.975739	0.671890	NaN
	0.975739	0.671890	NaN
	0.975739	0.671890	NaN
	1.013594	0.613292	NaN
	1.013594	0.613292	NaN
	1.013594	0.671890	NaN
	1.013593	0.548471	NaN
	1.013593	0.548471	NaN
	1.013593	0.548471	NaN
	1.013593	0.548471	NaN
	1.013593	0.548471	NaN
	1.050086	0.548471	NaN
	1.013593	0.474879	NaN
	1.013593	0.474879	NaN
	1.013593	0.387561	NaN
	1.013593	0.387561	NaN
	1.013593	0.273667	NaN
	1.013593	0.273667	NaN
	1.013593	0.273667	NaN
	1.013593	0.273667	NaN
	1.013593	0.273667	NaN
	1.013593	NaN	NaN
	1.013593	NaN	NaN
	0.975738	NaN	NaN
	0.975738	NaN	NaN
	1.013593	NaN	NaN
	1.050086	NaN	NaN
	1.050086	NaN	NaN
	1.013593	NaN	NaN
	1.050086	NaN	NaN
	1.013594	NaN	NaN
	1.013594	NaN	NaN
	1.013594	NaN	NaN
	0.975739	NaN	NaN
	0.975739	NaN	NaN
	0.975739	NaN	NaN
	0.975739	NaN	0.389971
	0.975739	NaN	0.389971
	0.975739	NaN	0.476848
	0.975739	NaN	0.476848
	0.936355	NaN	0.389970
	0.936355	NaN	0.389970
	0.936355	NaN	0.389970
	0.936355	NaN	0.389970
	0.936355	NaN	0.550173
	0.895239	NaN	0.476847
	0.895239	NaN	0.476847
	0.895239	NaN	0.476847
	0.895239	NaN	0.550173
	0.852142	NaN	0.550172
	0.852142	NaN	0.614814
	0.895241	NaN	0.673278
	0.852142	NaN	0.673278
	0.806746	NaN	0.673278
	0.852144	NaN	0.614814
	0.852144	NaN	0.673278
	0.852144	NaN	0.673278
	0.852144	NaN	0.673278
	0.852144	NaN	0.673278
	0.806748	NaN	0.777121
	0.806748	NaN	0.727056
	0.806748	NaN	0.727056
	0.806748	NaN	0.727056
	0.806748	NaN	0.727056
	0.806748	NaN	0.727056
	0.758640	NaN	0.727056
	0.758640	NaN	0.777121
	0.758640	NaN	0.727056
	0.758640	NaN	0.727056
	0.758640	NaN	0.727056
	0.707268	NaN	0.777122
	0.707268	NaN	0.727056
	0.707268	NaN	0.727056
	0.707268	NaN	0.727056
	0.651860	NaN	0.727056
	0.651860	NaN	0.727056
	0.651860	NaN	0.777122
	0.651860	NaN	0.673279
	0.651860	NaN	0.673279
	0.651860	NaN	0.673279
	0.651860	NaN	0.727057
	0.651860	NaN	0.673279
	0.651860	NaN	0.673279
	0.651860	NaN	0.673279
	0.651860	NaN	0.673279
	0.591280	NaN	0.614815
	0.591280	NaN	0.614815
	0.591280	NaN	0.614815
	0.591280	NaN	0.614815
	0.591280	NaN	0.614815
	0.591280	NaN	0.614815
	0.651858	NaN	0.550174
	0.591280	NaN	0.550174
	0.651858	NaN	0.550174
	0.651858	NaN	0.550174
	0.651858	NaN	0.550174
	0.651858	NaN	0.550174
	0.651858	NaN	0.476849
	0.651858	NaN	0.476849
	0.651858	NaN	0.476849
	0.651858	NaN	0.476849
	0.651858	NaN	0.476849
	0.651858	NaN	0.389973
	0.707266	NaN	0.389973
	0.707266	NaN	0.389973
	0.707266	NaN	0.277078
	0.707266	NaN	0.277078
	0.707266	NaN	0.277078
	0.758639	NaN	0.277078
	0.707266	NaN	0.277078
	0.707266	NaN	0.038287
	0.707265	NaN	0.038287
	0.707265	NaN	0.038287
	0.651856	NaN	0.038287
	0.707265	NaN	NaN
	0.707265	NaN	NaN
	0.707265	NaN	NaN
	0.707265	NaN	NaN
	0.707265	NaN	NaN
	0.707265	NaN	NaN
	0.758637	NaN	NaN
	0.707263	NaN	NaN
	0.707263	NaN	NaN
	0.758637	NaN	NaN
	0.707263	NaN	NaN
	0.707263	NaN	NaN
	0.806745	NaN	NaN
	0.758635	NaN	NaN
	0.707263	NaN	NaN
	0.707263	NaN	NaN
	0.707263	0.273662	NaN
	0.707263	0.273662	NaN
	0.707263	0.273662	NaN
	0.707263	0.273662	NaN
	0.758635	0.273662	NaN
	0.707263	0.387557	NaN
	0.758635	0.387557	NaN
	0.707263	0.273662	NaN
	0.806745	0.387557	NaN
	0.806745	0.387557	NaN
	0.758637	0.387557	NaN
	0.806745	0.474877	NaN
	0.806745	0.387557	NaN
	0.806745	0.387557	NaN
	0.806745	0.474877	NaN
	0.806745	0.387557	NaN
	0.806745	0.387557	NaN
	0.806745	0.387557	NaN
	0.806745	0.387557	NaN
	0.758637	0.387557	NaN
	0.758637	0.387557	NaN
	0.806746	0.474877	NaN
	0.758637	0.387557	NaN
	0.758637	0.474877	NaN
	0.758637	0.474877	NaN
	0.806746	0.387557	NaN
	0.806746	0.474877	NaN
	0.806746	0.474877	NaN
	0.806746	0.474877	NaN
	0.758639	0.474877	NaN
	0.758639	0.474877	NaN
	0.758639	0.474877	NaN
	0.758639	0.474877	NaN
	0.758639	0.474877	NaN
	0.758639	0.474877	NaN
	0.758639	0.474877	NaN
	0.806748	0.474877	NaN
	0.707266	0.474877	NaN
	0.758640	0.474877	NaN
	0.758640	0.387554	NaN
	0.758640	0.387554	NaN
	0.758640	0.387554	NaN
	0.758642	0.387554	NaN
	0.707268	0.387554	NaN
	0.758642	0.387554	NaN
	0.758642	0.387554	0.038359
	0.707270	0.387554	NaN
	0.707270	0.387554	0.038359
	0.707270	0.387554	0.038359
	0.707270	0.387554	0.038359
	0.707270	0.387554	NaN
	0.707270	0.387551	0.038359
	0.707270	0.387554	0.038359
	0.707272	0.387554	0.038359
	0.707272	0.273658	0.038359
	0.707272	0.273658	0.038359
	0.707272	0.273658	0.038359
	0.651864	0.387551	0.277090
	0.651864	0.387551	0.389981
	0.651864	0.387551	0.277088
	0.707274	0.387551	0.277088
	0.707274	0.387551	0.389981
	0.707274	0.387551	0.277088
	0.651866	0.387551	0.389981
	0.651866	0.387551	0.476857
	0.651866	0.273658	0.476856
	0.651866	0.273658	0.550181
	0.707276	NaN	0.476856
	0.707276	NaN	0.476856
	0.707276	NaN	0.476856
	0.707276	NaN	0.476856
	0.707276	NaN	0.550180
	0.707276	NaN	0.614822
	0.651868	NaN	0.550180
	0.651868	NaN	0.550180
	0.651868	NaN	0.550180
	0.707277	NaN	0.550180
	0.651868	NaN	0.550180
	0.707277	NaN	0.614821
	0.707277	NaN	0.614821
	0.707277	NaN	0.614821
	0.651868	NaN	0.614821
	0.651868	NaN	0.614821
	0.707277	NaN	0.614821
	0.707277	NaN	0.614821
	0.651868	NaN	0.673284
	0.651868	NaN	0.673284
	0.651868	NaN	0.673284
	0.707277	NaN	0.673284
	0.707277	NaN	0.673284
	0.651868	NaN	0.673284
	0.651868	NaN	0.673284
	0.651868	NaN	0.673284
	0.651868	NaN	0.673284
	0.651868	NaN	0.673284
	0.651868	NaN	0.673284
	0.651868	NaN	0.673284
	0.591289	NaN	0.673284
	0.651868	NaN	0.673284
	0.651868	NaN	0.673284
	0.591289	NaN	0.673284
	0.591289	NaN	0.727061
	0.591289	NaN	0.727061
	0.591289	NaN	0.673284
	0.591289	NaN	0.673284
	0.591289	NaN	0.673284
	0.591289	NaN	0.673284
	0.591289	NaN	0.673284
	0.591289	NaN	0.673283
	0.523749	NaN	0.673284
	0.523749	NaN	0.614820
	0.523749	NaN	0.614820
	0.523749	NaN	0.614820
	0.591287	NaN	0.614820
	0.591287	NaN	0.614820
	0.591287	NaN	0.614820
	0.591287	NaN	0.614820
	0.591287	NaN	0.614820
	0.591287	NaN	0.614820
	0.523747	NaN	0.614820
	0.591287	NaN	0.614820
	0.591284	NaN	0.614820
	0.651864	NaN	0.550179
	0.591284	NaN	0.550179
	0.591284	NaN	0.550179
	0.591284	NaN	0.550179
	0.591284	NaN	0.476854
	0.591284	NaN	0.476855
	0.651862	NaN	0.476855
	0.591284	NaN	0.389978
	0.651862	NaN	0.476855
	0.651862	NaN	0.389978
	0.651862	NaN	0.389978
	0.651862	NaN	0.389978
	0.591282	NaN	0.277086
	0.591282	NaN	0.277086
	0.591282	NaN	0.277086
	0.591282	NaN	0.277086
	0.651860	NaN	0.277086
	0.651860	NaN	0.277086
	0.651860	0.273658	0.038330
	0.651860	0.273658	NaN
	0.651860	0.273658	NaN
	0.651860	NaN	NaN
	0.651860	0.273658	NaN
	0.651860	NaN	NaN
	0.707268	NaN	NaN
	0.651860	NaN	NaN
	0.707268	NaN	NaN
	0.651858	0.273658	NaN
	0.651858	0.387554	NaN
	0.651858	0.273658	NaN
	0.707266	0.387554	NaN
	0.651858	0.387554	NaN
	0.707266	0.273658	NaN
	0.707266	0.273658	NaN
	0.707266	0.387554	NaN
	0.707266	0.387554	NaN
	0.707266	0.387554	NaN
	0.707265	0.273662	NaN
	0.707265	0.387554	NaN
	0.707265	0.387554	NaN
	0.707265	0.387554	NaN
	0.707265	0.387554	NaN
	0.707265	0.387554	NaN
	0.707265	0.387554	NaN
	0.707265	0.273662	NaN
	0.758637	0.387554	NaN
	0.651854	0.387554	NaN
	0.707263	0.387554	NaN
	0.758637	0.387554	NaN
	0.707263	0.387554	NaN
	0.707263	0.387554	NaN
	0.707263	0.273662	NaN
	0.707263	0.387554	NaN
	0.707263	0.273662	NaN
	0.707263	0.387554	NaN
	0.758635	0.273662	NaN
	0.758635	0.273662	NaN
	0.758635	0.273662	NaN
	0.758635	0.273662	NaN
	0.758635	0.273662	NaN
	0.758635	0.273662	NaN
	0.758635	NaN	NaN
	0.758635	0.273662	NaN
	0.758635	0.273662	NaN
	0.758635	NaN	NaN
	0.758635	NaN	NaN
	0.758635	NaN	NaN
	0.758635	NaN	NaN
	0.806743	NaN	NaN
	0.806743	NaN	NaN
	0.758635	NaN	NaN
	0.758635	NaN	NaN
	0.806743	NaN	NaN
	0.806743	NaN	NaN
	0.806743	NaN	NaN
	0.852141	NaN	NaN
	0.806743	NaN	NaN
	0.806745	NaN	NaN
	0.806745	NaN	0.038287
	0.852141	NaN	NaN
	0.806745	NaN	NaN
	0.852141	NaN	NaN
	0.806745	NaN	NaN
	0.852141	NaN	NaN
	0.806745	NaN	0.038272
	0.806745	NaN	0.277078
	0.852142	NaN	0.277078
	0.806745	NaN	0.038272
	0.806745	NaN	0.038272
	0.806745	NaN	0.277078
	0.852142	NaN	0.277078
	0.852142	NaN	0.389973
	0.806746	NaN	0.389973
	0.852142	NaN	0.389973
	0.806746	NaN	0.389973
	0.852142	NaN	0.389973
	0.806746	NaN	0.389973
	0.852144	NaN	0.389973
	0.852144	NaN	0.389973
	0.852144	NaN	0.476849
	0.806746	NaN	0.476849
	0.852144	NaN	0.476849
	0.852144	NaN	0.476849
	0.852144	NaN	0.476849
	0.852144	NaN	0.476849
	0.852144	NaN	0.476849
	0.852144	NaN	0.476849
	0.852144	NaN	0.476849
	0.852144	NaN	0.550175
	0.895242	NaN	0.550175
	0.852145	NaN	0.476849
	0.852145	NaN	0.476849
	0.852145	NaN	0.550175
	0.852145	NaN	0.550174
	0.852145	NaN	0.614816
	0.852145	NaN	0.550175
	0.852145	NaN	0.550175
	0.852145	NaN	0.550175
	0.852145	NaN	0.550175
	0.852145	NaN	0.550175
	0.852145	NaN	0.550175
	0.852145	NaN	0.550175
	0.852145	NaN	0.550175
	0.852145	NaN	0.550175
	0.852145	NaN	0.550175
	0.852145	NaN	0.550175
	0.852145	NaN	0.550175
	0.852145	NaN	0.550175
	0.852145	NaN	0.550175
	0.806749	NaN	0.550175
	0.852145	NaN	0.550175
	0.852145	NaN	0.476850
	0.852145	NaN	0.476850
	0.852145	NaN	0.550175
	0.852145	NaN	0.476850
	0.852145	NaN	0.550175
	0.852145	NaN	0.476850
	0.852145	NaN	0.476850
	0.852145	NaN	0.476850
	0.852145	NaN	0.476850
	0.852145	NaN	0.389974
	0.852145	NaN	0.389974
	0.852145	NaN	0.389974
	0.852145	NaN	0.389974
	0.852145	NaN	0.389974
	0.852145	NaN	0.389974
	0.895242	NaN	0.389974
	0.895242	NaN	0.277080
	0.852145	NaN	0.277080
	0.852145	NaN	0.277080
	0.852145	NaN	0.277080
	0.895242	NaN	0.277080
	0.895242	NaN	0.277080
	0.852145	NaN	0.038301
	0.895242	NaN	0.277080
	0.895242	NaN	0.038301
	0.895242	NaN	0.038301
	0.852144	NaN	0.038301
	0.852144	NaN	0.038301
	0.852144	NaN	0.038301
	0.895242	NaN	0.038301
	0.852144	NaN	0.038301
	0.852144	NaN	NaN
	0.852144	NaN	NaN
	0.852144	NaN	NaN
	0.852144	NaN	NaN
	0.852144	NaN	NaN
	0.852144	NaN	NaN
	0.852144	NaN	NaN
	0.852144	NaN	NaN
	0.852144	NaN	NaN
	0.852144	NaN	NaN
	0.852144	NaN	NaN
	0.852144	NaN	NaN
	0.852144	NaN	NaN
	0.852144	0.273662	NaN
	0.852144	0.273662	NaN
	0.852144	0.273662	NaN
	0.852144	NaN	NaN
	0.852144	NaN	NaN
	0.852144	0.273662	NaN
	0.852144	0.273662	NaN
	0.852144	0.273662	NaN
	0.852144	0.273662	NaN
	0.852144	0.273662	NaN
	0.852144	0.273662	NaN
	0.852144	0.273662	NaN
	0.806748	0.273662	NaN
	0.806748	0.273662	NaN
	0.806748	0.273662	NaN
	0.806748	0.273662	NaN
	0.806748	0.273662	NaN
	0.806748	0.387554	NaN
	0.806748	0.387554	NaN
	0.806748	0.273662	NaN
	0.806748	0.387554	NaN
	0.758640	0.387554	NaN
	0.758640	0.387554	NaN
	0.758640	0.387554	NaN
	0.758640	0.387554	NaN
	0.758640	0.387554	NaN
	0.758640	0.387554	NaN
	0.758640	0.387554	NaN
	0.758640	0.273658	NaN
	0.707268	0.387554	NaN
	0.707268	0.387554	NaN
	0.707268	0.273662	NaN
	0.707268	0.273658	0.038345
	0.651860	0.387554	0.038345
	0.651860	0.387554	0.038345
	0.651860	0.387554	NaN
	0.651860	0.273658	0.038345
	0.651860	0.273658	0.038345
	0.651860	0.273658	0.038345
	0.651860	0.387551	0.038345
	0.651860	0.273658	0.038345
	0.651860	0.273658	0.038345
	0.591282	0.273658	0.038345
	0.707270	0.273658	0.038345
	0.591282	0.273658	0.038345
	0.591282	0.273658	0.038345
	0.591282	0.387551	0.038345
	0.591282	0.273658	0.038345
	0.591282	0.387551	0.277086
	0.591282	NaN	0.277086
	0.591282	NaN	0.389980
	0.651862	NaN	0.277086
	0.591284	NaN	0.389980
	0.591284	NaN	0.389980
	0.591284	NaN	0.389980
	0.591284	NaN	0.277086
	0.591284	NaN	0.389980
	0.591284	NaN	0.389980
	0.591284	0.273653	0.277086
	0.591284	NaN	0.476855
	0.591284	NaN	0.476855
	0.591284	NaN	0.476855
	0.523747	NaN	0.476855
	0.523747	NaN	0.476855
	0.523747	0.273653	0.476855
	0.591284	NaN	0.476855
	0.523747	NaN	0.476855
	0.591287	NaN	0.476855
	0.523747	NaN	0.550179
	0.523747	NaN	0.476855
	0.523747	NaN	0.476855
	0.523747	NaN	0.550179
	0.523747	NaN	0.550179
	0.523747	NaN	0.550179
	0.591287	NaN	0.550179
	0.523747	NaN	0.550179
	0.523747	NaN	0.550179
	0.591287	NaN	0.550179
	0.591287	NaN	0.550179
	0.591287	NaN	0.550179
	0.591287	NaN	0.550179
	0.591287	NaN	0.550179
	0.523747	NaN	0.550179
	0.591287	NaN	0.550179
	0.591287	NaN	0.550179
	0.523747	NaN	0.550179
	0.523747	NaN	0.550179
	0.523747	NaN	0.550179
	0.591284	NaN	0.550178
	0.591287	NaN	0.550179
	0.523747	NaN	0.550179
	0.591284	NaN	0.476854
	0.591284	NaN	0.550178
	0.591284	NaN	0.550179
	0.591284	NaN	0.476854
	0.591284	NaN	0.550179
	0.591284	NaN	0.476854
	0.651864	NaN	0.550179
	0.591284	NaN	0.476854
	0.591284	NaN	0.476854
	0.591284	NaN	0.476854
	0.591284	NaN	0.476854
	0.591284	NaN	0.476854
	0.651862	NaN	0.476854
	0.591284	NaN	0.476854
	0.651862	NaN	0.476854
	0.651862	NaN	0.476854
	0.651862	NaN	0.476854
	0.651862	NaN	0.476854
	0.651862	NaN	0.476854
	0.651862	NaN	0.476854
	0.651862	NaN	0.389978
	0.651862	NaN	0.476854
	0.651862	NaN	0.389978
	0.707270	NaN	0.389978
	0.651862	NaN	0.389978
	0.707270	NaN	0.389978
	0.707270	NaN	0.277084
	0.707270	NaN	0.389978
	0.707270	NaN	0.277084
	0.707270	NaN	0.389978
	0.707270	NaN	0.038330
	0.707270	NaN	0.277084
	0.707270	0.273658	0.038330
	0.707270	NaN	0.038330
	0.758642	NaN	0.038330
	0.758642	NaN	0.038330
	0.758642	NaN	0.038330
	0.758642	0.273658	0.038330
	0.758642	0.273658	0.038330
	0.758642	0.273658	NaN
	0.707268	0.273658	0.038330
	0.758640	NaN	0.038330
	0.758640	NaN	NaN
	0.758640	NaN	0.038330
	0.758640	NaN	NaN
	0.806749	0.273662	NaN
	0.758640	NaN	NaN
	0.758640	NaN	NaN
	0.758640	0.273662	NaN
	0.758640	NaN	NaN
	0.758640	NaN	NaN
	0.806748	NaN	NaN
	0.806748	0.273662	NaN
	0.806748	0.273662	NaN
	0.806748	0.273662	NaN
	0.806748	0.273662	NaN
	0.806748	0.273662	NaN
	0.806748	NaN	NaN
	0.806748	0.273662	NaN
	0.852144	0.273662	NaN
	0.806748	0.273662	NaN
	0.852144	0.273662	NaN
	0.806748	0.273662	NaN
	0.852144	0.273662	NaN
	0.852144	0.273662	NaN
	0.852144	0.273662	NaN
	0.852144	NaN	NaN
	0.852144	NaN	NaN
	0.852144	0.273662	NaN
	0.852144	0.273662	NaN
	0.806746	0.273662	NaN
	0.852144	NaN	NaN
	0.806746	NaN	NaN
	0.852144	NaN	NaN
	0.852144	NaN	NaN
	0.852144	NaN	NaN
	0.806746	0.273662	NaN
	0.852144	NaN	NaN
	0.852144	NaN	NaN
	0.806746	NaN	NaN
	0.806746	NaN	NaN
	0.806746	NaN	NaN
	0.852142	NaN	NaN
	0.806746	NaN	NaN
	0.806746	NaN	0.038301
	0.806746	NaN	0.038301
	0.806746	NaN	0.038301
	0.806746	NaN	0.038301
	0.895241	NaN	0.038301
	0.806746	NaN	0.038301
	0.806746	NaN	0.038301
	0.895241	NaN	NaN
	0.895241	NaN	0.038301
	0.895241	NaN	0.038301
	0.852144	NaN	0.277080
	0.895241	NaN	0.277080
	0.806746	NaN	0.038287
	0.806746	NaN	0.277080
	0.806746	NaN	0.038287
	0.806746	NaN	0.277080
	0.806746	NaN	0.038287
	0.806746	NaN	0.038287
	0.852144	NaN	0.038287
	0.806746	NaN	0.038287
	0.806746	NaN	0.038287
	0.806746	NaN	0.038287
	0.806746	NaN	0.038287
	0.806748	NaN	0.389974
	0.806748	NaN	0.389974
	0.758639	NaN	0.389974
	0.758639	NaN	0.277078
	0.806746	NaN	0.277078
	0.806748	NaN	0.389974
	0.806748	NaN	0.277078
	0.806748	NaN	0.389974
	0.806748	NaN	0.389974
	0.758639	NaN	0.389974
	0.806748	NaN	0.389974
	0.758639	NaN	0.389974
	0.758639	NaN	0.389974
	0.806748	NaN	0.389974
	0.806748	NaN	0.389974
	0.806748	NaN	0.389974
	0.806748	NaN	0.389974
	0.806748	NaN	0.389974
	0.806748	NaN	0.277078
	0.806748	NaN	0.389974
	0.806748	NaN	0.476850
	0.758640	NaN	0.389974
	0.758640	NaN	0.389974
	0.758640	NaN	0.389974
	0.758640	NaN	0.389974
	0.758640	NaN	0.476850
	0.806748	NaN	0.389974
	0.758640	NaN	0.389974
	0.758640	NaN	0.389974
	0.758640	NaN	0.389974
	0.758640	NaN	0.389974
	0.758640	NaN	0.389974
	0.758640	NaN	0.389974
	0.758640	NaN	0.389974
	0.758640	NaN	0.389974
	0.758640	NaN	0.389974
	0.707266	NaN	0.389974
	0.758640	NaN	0.389974
	0.758640	NaN	0.389974
	0.758640	NaN	0.277080
	0.758640	NaN	0.277080
	0.707266	NaN	0.277080
	0.758640	NaN	0.389974
	0.806748	NaN	0.277080
	0.806748	NaN	0.277080
	0.758640	NaN	0.277080
	0.758640	NaN	0.277080
	0.758640	NaN	0.277080
	0.758640	NaN	0.277080
	0.758640	NaN	0.277080
	0.758640	NaN	0.277080
	0.758640	NaN	0.277080
	0.758640	NaN	0.038301
	0.806748	NaN	0.038301
	0.758640	NaN	0.038301
	0.806748	NaN	0.038301
	0.806748	NaN	0.038301
	0.758639	NaN	0.038301
	0.806748	NaN	0.038301
	0.758639	NaN	0.038301
	0.806748	NaN	NaN
	0.806748	NaN	NaN
	0.758639	NaN	NaN
	0.758639	NaN	NaN
	0.758639	NaN	NaN
	0.806748	NaN	NaN
	0.758639	NaN	NaN
	0.806748	NaN	NaN
	0.806748	NaN	NaN
	0.806748	NaN	0.038316
	0.758639	NaN	0.038316
	0.806748	NaN	NaN
	0.758639	NaN	NaN
	0.806748	NaN	NaN
	0.758639	NaN	NaN
	0.758639	NaN	NaN
	0.758639	NaN	NaN
	0.758639	NaN	NaN
	0.758639	NaN	NaN
	0.758639	NaN	NaN
	0.806748	NaN	NaN
	0.806748	NaN	NaN
	0.758639	NaN	NaN
	0.758639	NaN	NaN
	0.806748	NaN	NaN
	0.758639	NaN	NaN
	0.806748	NaN	NaN
	0.758640	NaN	NaN
	0.758640	NaN	NaN
	0.758640	NaN	NaN
	0.758640	NaN	NaN
	0.758640	NaN	NaN
	0.758640	NaN	NaN
	0.758640	0.273658	NaN
	0.758640	NaN	NaN
	0.758640	NaN	NaN
	0.758640	NaN	NaN
	0.758640	NaN	0.038330
	0.758640	NaN	NaN
	0.758640	NaN	NaN
	0.758640	0.273658	NaN
	0.806749	0.273658	0.038330
	0.758640	0.387554	NaN
	0.758640	0.273658	0.038330
	0.707268	0.273658	0.038330
	0.707268	NaN	0.038330
	0.707268	0.273658	NaN
	0.758642	0.273658	0.038330
	0.758642	0.273658	0.277086
	0.758642	NaN	0.038330
	0.758642	NaN	0.277086
	0.707270	NaN	0.038330
	0.707270	0.273658	0.277086
	0.707270	0.273658	0.277086
	0.707270	0.273658	0.277086
	0.707270	NaN	0.277086
	0.707270	0.273658	0.277086
	0.707270	0.273658	0.277086
	0.707270	0.273658	0.277086
	0.707270	NaN	0.277086
	0.707270	NaN	0.277086
	0.707270	NaN	0.277086
	0.707270	0.273658	0.277086
	0.758644	NaN	0.277086
	0.758644	NaN	0.277086
	0.758644	0.273658	0.277086
	0.758644	NaN	0.389978
	0.758644	NaN	0.277086
	0.758644	NaN	0.389978
	0.707272	NaN	0.277086
	0.758644	NaN	0.277086
	0.758644	NaN	0.389978
	0.707272	NaN	0.389978
	0.707272	NaN	0.389978
	0.707272	NaN	0.389978
	0.707272	NaN	0.389978
	0.758644	NaN	0.389978
	0.758644	NaN	0.389978
	0.758644	NaN	0.389978
	0.707272	NaN	0.476855
	0.707272	NaN	0.476855
	0.707272	NaN	0.389978
	0.707272	NaN	0.389978
	0.707272	NaN	0.389978
	0.707272	NaN	0.476855
	0.707272	NaN	0.476855
	0.707272	NaN	0.476855
	0.707272	NaN	0.476854
	0.707272	NaN	0.476854
	0.707272	NaN	0.389978
	0.707272	NaN	0.389978
	0.707272	NaN	0.476854
	0.707272	NaN	0.476854
	0.707272	NaN	0.550179
	0.707272	NaN	0.389978
	0.758645	NaN	0.476854
	0.758644	NaN	0.476854
	0.707272	NaN	0.476854
	0.707272	NaN	0.476854
	0.806753	NaN	0.476854
	0.707272	NaN	0.476854
	0.707272	NaN	0.476854
	0.707272	NaN	0.476854
	0.707272	NaN	0.476854
	0.758644	NaN	0.389978
	0.758644	NaN	0.476854
	0.758644	NaN	0.389978
	0.758644	NaN	0.476854
	0.758644	NaN	0.476854
	0.758644	NaN	0.476854
	0.758644	NaN	0.476854
	0.758644	NaN	0.476854
	0.758644	NaN	0.476854
	0.758644	NaN	0.476854
	0.758644	NaN	0.476854
	0.758644	NaN	0.476854
	0.758644	NaN	0.389978
	0.758644	NaN	0.389978
	0.758644	NaN	0.389978
	0.758644	NaN	0.389978
	0.758644	NaN	0.389978
	0.758644	NaN	0.389978
	0.707270	NaN	0.389978
	0.758644	NaN	0.389978
	0.758644	NaN	0.389978
	0.758644	NaN	0.389978
	0.758644	NaN	0.389978
	0.707270	NaN	0.277084
	0.707270	NaN	0.389978
	0.707270	NaN	0.389978
	0.707270	NaN	0.389978
	0.707270	NaN	0.277084
	0.758642	NaN	0.277084
	0.758642	NaN	0.038330
	0.758642	NaN	0.277084
	0.758642	NaN	0.277084
	0.758642	NaN	0.038330
	0.758642	NaN	0.389978
	0.758642	NaN	0.277084
	0.806749	NaN	0.038330
	0.758642	NaN	0.277084
	0.758642	NaN	0.038330
	0.758640	0.273658	0.038330
	0.758642	NaN	0.038330
	0.806749	NaN	NaN
	0.758642	NaN	0.277084
	0.806749	NaN	0.038330
	0.758640	NaN	0.038330
	0.758640	NaN	NaN
	0.758640	NaN	NaN
	0.758640	NaN	NaN
	0.758640	NaN	0.038330
	0.758640	NaN	NaN
	0.758640	NaN	NaN
	0.758640	NaN	NaN
	0.806748	NaN	NaN
	0.806748	NaN	NaN
	0.806748	NaN	NaN
	0.806748	NaN	NaN
	0.758640	NaN	NaN
	0.806748	NaN	NaN
	0.806748	NaN	NaN
	0.806748	NaN	NaN
	0.806748	NaN	NaN
	0.806748	NaN	NaN
	0.806748	NaN	NaN
	0.806748	NaN	NaN
	0.806748	NaN	NaN
	0.806748	NaN	NaN
	0.806748	NaN	NaN
	0.758639	NaN	0.038316
	0.758639	NaN	NaN
	0.758639	NaN	0.038316
	0.758639	NaN	NaN
	0.758639	NaN	NaN
	0.758639	NaN	NaN
	0.758639	NaN	NaN
	0.758639	NaN	NaN
	0.758639	NaN	NaN
	0.758639	NaN	NaN
	0.758639	NaN	NaN
	0.758639	NaN	0.038316
	0.758639	NaN	0.038301
	0.758639	NaN	NaN
	0.758639	NaN	NaN
	0.758639	NaN	NaN
	0.758639	NaN	0.038301
	0.758639	NaN	0.038301
	0.758639	NaN	0.038301
	0.758639	NaN	0.038301
	0.758639	NaN	0.038301
	0.758639	NaN	0.038301
	0.758639	NaN	0.038301
	0.758639	NaN	0.038301
	0.758639	NaN	0.038301
	0.758639	NaN	0.038301
	0.758639	NaN	0.038301
	0.758639	NaN	0.277080
	0.758639	NaN	0.038301
	0.758639	NaN	0.038301
	0.758639	NaN	0.038301
	0.758639	NaN	0.038301
	0.758639	NaN	0.277080
	0.758639	NaN	0.277080
	0.758639	NaN	0.277080
	0.758639	NaN	0.277080
	0.707266	NaN	0.277080
	0.758639	NaN	0.277080
	0.758639	NaN	0.277080
	0.758639	NaN	0.277080
	0.758639	NaN	0.277080
	0.707266	NaN	0.277080
	0.758639	NaN	0.277080
	0.707266	NaN	0.277080
	0.806748	NaN	0.277080
	0.707266	NaN	0.277080
	0.758639	NaN	0.277080
	0.707266	NaN	0.277080
	0.806748	NaN	0.277080
	0.758640	NaN	0.277080
	0.758640	NaN	0.277080
	0.758640	NaN	0.277080
	0.707266	NaN	0.277080
	0.758640	NaN	0.277080
	0.758640	NaN	0.277080
	0.758640	NaN	0.389974
	0.758640	NaN	0.277080
	0.806748	NaN	0.389976
	0.758640	NaN	0.389976
	0.758640	NaN	0.277080
	0.758640	NaN	0.277080
	0.758640	NaN	0.277080
	0.707266	NaN	0.277080
	0.758640	NaN	0.277080
	0.758640	NaN	0.277080
	0.758640	NaN	0.277080
	0.707266	NaN	0.277080
	0.758640	NaN	0.277080
	0.758640	NaN	0.277080
	0.707266	NaN	0.277080
	0.758640	NaN	0.277080
	0.758640	NaN	0.277080
	0.758640	NaN	0.277080
	0.758640	NaN	0.277080
	0.758640	NaN	0.277080
	0.758640	NaN	0.389976
	0.758640	NaN	0.389976
	0.758640	NaN	0.277080
	0.758640	NaN	0.277080
	0.758640	NaN	0.277080
	0.758640	NaN	0.277080
	0.758640	NaN	0.277080
	0.758640	NaN	0.277080
	0.758640	NaN	0.389976
	0.758640	NaN	0.277080
	0.806748	NaN	0.277082
	0.806748	NaN	0.038301
	0.806748	NaN	0.038301
	0.758640	NaN	0.038301
	0.806748	NaN	0.038301
	0.806748	NaN	0.038301
	0.806748	NaN	0.277082
	0.758640	NaN	0.038301
	0.806748	NaN	0.277082
	0.806748	NaN	0.038316
	0.806748	NaN	NaN
	0.806748	NaN	0.038316
	0.806748	NaN	0.038316
	0.806748	NaN	0.038316
	0.806748	NaN	0.277082
	0.806748	NaN	0.038316
	0.806748	NaN	0.038316
	0.806748	NaN	0.038316
	0.758640	NaN	0.038316
	0.758640	NaN	NaN
	0.806748	NaN	0.038316
	0.806748	NaN	0.038316
	0.758640	NaN	NaN
	0.806748	NaN	0.038316
	0.806749	NaN	0.038316
	0.806748	NaN	0.038316
	0.758640	NaN	NaN
	0.758640	NaN	NaN
	0.758640	NaN	NaN
	0.758640	NaN	NaN
	0.758640	NaN	NaN
	0.806748	NaN	0.038316
	0.758640	NaN	NaN
	0.758640	NaN	NaN
	0.758640	NaN	NaN
	0.806749	NaN	NaN
	0.758640	NaN	NaN
	0.806749	NaN	0.038316
	0.758640	NaN	NaN
	0.806749	NaN	NaN
	0.806749	NaN	NaN
	0.806749	NaN	0.038330
	0.806749	NaN	0.038330
	0.806749	NaN	0.038330
	0.806749	NaN	0.038330
	0.806749	NaN	0.038330
	0.806749	NaN	0.038330
	0.806749	NaN	0.038330
	0.806749	NaN	0.038330
	0.806749	0.273658	0.038330
	0.806749	NaN	0.038330
	0.806749	NaN	0.038330
	0.758642	0.273658	0.038330
	0.758642	NaN	0.038330
	0.758642	NaN	0.038330
	0.806749	NaN	0.038330
	0.758642	NaN	0.038330
	0.758642	NaN	0.038330
	0.806751	NaN	0.038330
	0.758642	NaN	0.038330
	0.806751	NaN	0.038330
	0.758642	NaN	0.277084
	0.758642	NaN	0.038330
	0.758644	NaN	0.038330
	0.758644	NaN	0.277086
	0.758642	NaN	0.277086
	0.806751	0.273658	0.389978
	0.806751	NaN	0.277084
	0.707270	NaN	0.038330
	0.806751	NaN	0.038330
	0.758644	NaN	0.389978
	0.758644	NaN	0.389978
	0.806751	NaN	0.277086
	0.758644	NaN	0.389978
	0.758644	NaN	0.389978
	0.758644	NaN	0.389978
	0.758644	NaN	0.389978
	0.758644	NaN	0.389978
	0.758644	NaN	0.389978
	0.758644	NaN	0.389978
	0.758644	NaN	0.389978
	0.707270	NaN	0.389978
	0.758644	NaN	0.389978
	0.758644	NaN	0.389978
	0.758644	NaN	0.277084
	0.758644	NaN	0.389978
	0.758644	NaN	0.277084
	0.758644	NaN	0.277084
	0.758644	NaN	0.389978
	0.758644	NaN	0.389978
	0.758644	NaN	0.389978
	0.758644	NaN	0.389978
	0.758644	NaN	0.476854
	0.758644	NaN	0.389978
	0.758644	NaN	0.389978
	0.758644	NaN	0.389978
	0.758644	NaN	0.389978
	0.758644	NaN	0.476854
	0.758644	NaN	0.389978
	0.707270	NaN	0.389978
	0.707270	NaN	0.389978
	0.758644	NaN	0.389978
	0.758644	NaN	0.389978
	0.707270	NaN	0.476854
	0.758644	NaN	0.389978
	0.758644	NaN	0.389978
	0.758644	NaN	0.389978
	0.758644	NaN	0.389978
	0.758644	NaN	0.476854
	0.758644	NaN	0.389978
	0.758644	NaN	0.389978
	0.758644	NaN	0.389978
	0.707270	NaN	0.389977
	0.707270	NaN	0.277084
	0.758644	NaN	0.476854
	0.707270	NaN	0.476854
	0.707270	NaN	0.476854
	0.758644	NaN	0.389978
	0.758644	NaN	0.476854
	0.758644	NaN	0.476854
	0.707270	NaN	0.389977
	0.707270	NaN	0.277084
	0.707270	NaN	0.389977
	0.707270	NaN	0.389978
	0.707270	NaN	0.389977
	0.707270	NaN	0.277084
	0.707270	NaN	0.389978
	0.707270	NaN	0.277084
	0.707270	NaN	0.277084
	0.707270	NaN	0.277084
	0.758642	NaN	0.277084
	0.707270	NaN	0.277084
	0.707270	NaN	0.277084
	0.758642	NaN	0.277084
	0.758642	NaN	0.277084
	0.707270	NaN	0.277084
	0.758642	NaN	0.277084
	0.758642	NaN	0.277084
	0.758642	NaN	0.277084
	0.758642	NaN	0.277084
	0.758642	NaN	0.277084
	0.758642	NaN	0.277084
	0.758642	NaN	0.038316
	0.758642	NaN	0.277084
	0.758642	NaN	0.277084
	0.806749	0.273658	0.038316
	0.758642	NaN	0.038316
	0.806749	NaN	0.277084
	0.806749	NaN	0.038316
	0.806749	NaN	0.038330
	0.758640	NaN	0.277084
	0.758640	NaN	NaN
	0.758640	NaN	0.038330
	0.806749	NaN	0.277084
	0.758640	NaN	0.038330
	0.758640	NaN	0.277084
	0.758640	NaN	0.038316
	0.758640	NaN	0.038316
	0.758640	NaN	0.038316
	0.758640	NaN	0.038316
	0.758640	NaN	NaN
	0.758640	NaN	0.038316
	0.758640	NaN	0.038316
	0.758640	NaN	0.038316
	0.758640	NaN	NaN
	0.758640	NaN	0.038316
	0.758640	NaN	0.038316
	0.758640	NaN	0.038316
	0.758640	NaN	0.038316
	0.806748	NaN	0.038316
	0.806748	NaN	0.038316
	0.806748	NaN	0.038316
	0.806748	NaN	0.038316
	0.758640	NaN	0.038316
	0.758639	NaN	0.038316
	0.707266	NaN	0.038316
	0.707266	NaN	0.038316
	0.758639	NaN	0.038316
	0.806748	NaN	NaN
	0.758639	NaN	0.038316
	0.806748	NaN	0.038316
	0.758639	NaN	NaN
	0.758639	NaN	0.277082
	0.758639	NaN	NaN
	0.758639	NaN	NaN
	0.758639	NaN	0.038301
	0.758639	NaN	NaN
	0.806748	NaN	NaN
	0.758639	NaN	0.038301
	0.806748	NaN	0.038301
	0.806748	NaN	NaN
	0.806748	NaN	0.038301
	0.806748	NaN	0.038301
	0.758640	NaN	0.038301
	0.758639	NaN	0.038301
	0.806748	NaN	0.038301
	0.806748	NaN	0.038301
	0.806748	NaN	0.038301
	0.806748	NaN	0.038301
	0.806748	NaN	0.038301
	0.806748	NaN	0.038301
	0.806748	NaN	0.038301
	0.758639	NaN	0.038301
	0.758639	NaN	0.038301
	0.806748	NaN	0.038301
	0.758639	NaN	0.038301
	0.758639	NaN	0.038301
	0.806748	NaN	0.277080
	0.758639	NaN	0.038301
	0.707266	NaN	0.277080
	0.806748	NaN	0.277080
	0.806748	NaN	0.277080
	0.806748	NaN	0.277080
	0.758640	NaN	0.389976
	0.758640	NaN	0.277080
	0.758640	NaN	0.277080
	0.806748	NaN	0.277080
	0.758640	NaN	0.389976
	0.806748	NaN	0.389976
	0.758640	NaN	0.277080
	0.758640	NaN	0.389976
	0.758640	NaN	0.277080
	0.758640	NaN	0.277080
	0.758640	NaN	0.277080
	0.758640	NaN	0.277080
	0.758640	NaN	0.277080
	0.758640	NaN	0.277080
	0.758640	NaN	0.277080
	0.758640	NaN	0.277080
	0.758640	NaN	0.389976
	0.758640	NaN	0.277080
	0.758640	NaN	0.389976
	0.758640	NaN	0.277080
	0.758640	NaN	0.277080
	0.758640	NaN	0.277080
	0.758640	NaN	0.389976
	0.758640	NaN	0.389976
	0.758640	NaN	0.389976
	0.758640	NaN	0.277080
	0.758640	NaN	0.277080
	0.758640	NaN	0.389976
	0.758640	NaN	0.389976
	0.758640	NaN	0.038301
	0.758640	NaN	0.277082
	0.758640	NaN	0.389976
	0.758640	NaN	0.277082
	0.758640	NaN	0.389976
	0.758640	NaN	0.389976
	0.758640	NaN	0.389976
	0.758640	NaN	0.389976
	0.758640	NaN	0.277082
	0.758640	NaN	0.389976
	0.758640	NaN	0.389976
	0.758640	NaN	0.277082
	0.758640	NaN	0.277082
	0.758640	NaN	0.277082
	0.758640	NaN	0.277082
	0.758640	NaN	0.277082
	0.758640	NaN	0.277082
	0.758640	NaN	0.277082
	0.758640	NaN	0.277082
	0.758640	NaN	0.277082
	0.758640	NaN	0.277082
	0.758640	NaN	0.277082
	0.758640	NaN	0.277082
	0.758640	NaN	0.038316
	0.758640	NaN	0.277082
	0.758640	NaN	0.038316
	0.758640	NaN	0.038316
	0.806749	NaN	0.277082
	0.758640	NaN	0.038316
	0.758640	NaN	0.038316
	0.758640	NaN	0.038316
	0.806749	NaN	0.038316
	0.758640	NaN	0.038316
	0.758640	NaN	0.038316
	0.758640	NaN	0.038316
	0.758640	NaN	0.038316
	0.758640	NaN	0.038316
	0.806749	NaN	0.038316
	0.806749	NaN	0.038316
	0.758640	NaN	0.277084
	0.806749	NaN	0.038316
	0.758640	NaN	0.038316
	0.806749	NaN	NaN
	0.806749	NaN	0.038316
	0.806749	NaN	0.277084
	0.806749	NaN	0.038316
	0.806749	NaN	0.038316
	0.806749	NaN	0.038316
	0.806749	NaN	0.277084
	0.806749	NaN	NaN
	0.806749	NaN	0.038316
	0.806749	NaN	NaN
	0.806749	NaN	NaN
	0.806749	NaN	0.038316
	0.806749	NaN	0.038330
	0.806749	NaN	0.038330
	0.806749	NaN	0.277084
	0.806749	NaN	0.038316
	0.806749	NaN	0.038330
	0.806749	NaN	NaN
	0.806749	NaN	0.277084
	0.806749	NaN	0.038330
	0.758642	NaN	0.038330
	0.758642	NaN	0.277084
	0.806749	NaN	0.277084
	0.758642	NaN	0.038330
	0.758642	NaN	0.277084
	0.758642	NaN	0.038330
	0.758642	NaN	0.277084
	0.758642	NaN	0.277084
	0.758642	NaN	0.277084
	0.758642	NaN	0.277084
	0.758642	NaN	0.277084
	0.758642	NaN	0.277084
	0.758642	NaN	0.277084
	0.758642	NaN	0.038330
	0.758642	0.273658	0.277084
	0.758642	NaN	0.277084
	0.806751	NaN	0.277084
	0.758642	NaN	0.277084
	0.758642	NaN	0.389978
	0.806751	NaN	0.389978
	0.707270	NaN	0.277084
	0.758642	0.273658	0.277084
	0.806751	NaN	0.389978
	0.758642	NaN	0.277084
	0.758644	NaN	0.277084
	0.758642	NaN	0.277084
	0.707270	NaN	0.389978
	0.707270	NaN	0.277084
	0.758642	NaN	0.277084
	0.806751	NaN	0.389978
	0.758642	NaN	0.389978
	0.707270	NaN	0.389978
	0.758644	NaN	0.389978
	0.707270	NaN	0.389978
	0.707270	NaN	0.277084
	0.707270	NaN	0.389978
	0.758644	NaN	0.277084
	0.758644	NaN	0.389977
	0.707270	NaN	0.389978
	0.758644	NaN	0.277084
	0.758644	NaN	0.476854
	0.758644	NaN	0.389978
	0.758644	NaN	0.476854
	0.758644	NaN	0.476854
	0.758644	NaN	0.389978
	0.758644	NaN	0.389977
	0.758644	NaN	0.389977
	0.758644	NaN	0.389977
	0.758644	NaN	0.277084
	0.707270	NaN	0.389978
	0.758644	NaN	0.476854
	0.707270	NaN	0.389977
	0.806751	NaN	0.389977
	0.758644	NaN	0.389977
	0.758644	NaN	0.389977
	0.758644	NaN	0.277084
	0.707270	NaN	0.476854
	0.758644	NaN	0.476854
	0.758642	NaN	0.476854
	0.758644	NaN	0.389977
	0.707270	NaN	0.389977
	0.707270	NaN	0.389977
	0.707270	NaN	0.476854
	0.707270	NaN	0.476854
	0.707270	NaN	0.389977
	0.707270	NaN	0.389977
	0.707270	NaN	0.277084
	0.758642	NaN	0.277084
	0.758642	NaN	0.277084
	0.758642	NaN	0.389977
	0.758642	NaN	0.277084
	0.758642	NaN	0.389977
	0.758642	NaN	0.277084
	0.758642	NaN	0.277084
	0.758642	NaN	0.277084
	0.758642	NaN	0.277084
	0.758642	NaN	0.277084
	0.758642	NaN	0.277084
	0.806749	NaN	0.038316
	0.758642	NaN	0.038316
	0.758642	NaN	0.277084
	0.758642	NaN	0.277084
	0.758642	NaN	0.038316
	0.758642	NaN	0.277084
	0.806749	NaN	0.277084
	0.806749	NaN	0.277084
	0.758642	NaN	0.038316
	0.806749	NaN	0.038316
	0.806749	NaN	0.038316
	0.758640	NaN	0.038316
	0.806749	NaN	0.038316
	0.806749	NaN	0.038316
	0.806749	NaN	0.038316
	0.806749	NaN	0.038316
	0.758640	NaN	0.038316
	0.806749	NaN	0.038316
	0.758640	NaN	0.038316
	0.806749	NaN	0.038316
	0.758640	NaN	0.038316
	0.758640	NaN	0.038316
	0.758640	NaN	0.038316
	0.758640	NaN	0.038316
	0.758640	NaN	0.038316
	0.758640	NaN	0.038316
	0.758640	NaN	0.038316
	0.758640	NaN	0.038316
	0.758640	NaN	0.038316
	0.758640	NaN	0.038316
	0.758640	NaN	0.038316
	0.758640	NaN	0.038316
	0.758640	NaN	0.038316
	0.758640	NaN	0.038316
	0.758640	NaN	0.038316
	0.758640	NaN	0.038316
	0.806748	NaN	0.038316
	0.758640	NaN	0.038316
	0.806748	NaN	0.038316
	0.806748	NaN	0.038316
	0.806748	NaN	0.038316
	0.806748	NaN	0.038316
	0.758640	NaN	0.038316
	0.806748	NaN	0.038316
	0.758640	NaN	0.038316
	0.758640	NaN	0.038316
	0.758640	NaN	0.038316
	0.707266	NaN	0.038316
	0.806748	NaN	0.277082
	0.758640	NaN	NaN
	0.806748	NaN	NaN
	0.806748	NaN	NaN
	0.806748	NaN	NaN
	0.806748	NaN	0.038301
	0.806748	NaN	0.277082
	0.806748	NaN	NaN
	0.806748	NaN	0.277082
	0.806748	NaN	0.277082
	0.806748	NaN	0.038301
	0.758639	NaN	0.038301
	0.806748	NaN	0.277082
	0.806748	NaN	0.277082
	0.758640	NaN	0.277082
	0.758640	NaN	0.277082
	0.806748	NaN	0.277082
	0.758639	NaN	0.038301
	0.806748	NaN	0.038301
	0.758640	NaN	0.277082
	0.806748	NaN	0.038301
	0.758640	NaN	0.038301
	0.758640	NaN	0.038301
	0.707266	NaN	0.389976
	0.806748	NaN	0.038301
	0.707266	NaN	0.277082
	0.758640	NaN	0.038301
	0.758640	NaN	0.389976
	0.806748	NaN	0.038301
	0.758640	NaN	0.038301
	0.758640	NaN	0.277082
	0.758640	NaN	0.277082
	0.758640	NaN	0.277080
	0.758640	NaN	0.277080
	0.758640	NaN	0.038301
	0.758640	NaN	0.277082
	0.758640	NaN	0.277082
	0.758640	NaN	0.389976
	0.758640	NaN	0.389976
	0.758640	NaN	0.389976
	0.758640	NaN	0.277082
	0.758640	NaN	0.038301
	0.758640	NaN	0.038301
	0.758640	NaN	0.277082
	0.758640	NaN	0.277082
	0.758640	NaN	0.389976
	0.758640	NaN	0.389976
	0.758640	NaN	0.389976
	0.758640	NaN	0.277082
	0.758640	NaN	0.389976
	0.758640	NaN	0.038301
	0.758640	NaN	0.389976
	0.758640	NaN	0.389976
	0.758640	NaN	0.277082
	0.758640	NaN	0.389976
	0.758640	NaN	0.277082
	0.758640	NaN	0.277082
	0.758640	NaN	0.277082
	0.758640	NaN	0.389976
	0.758640	NaN	0.277082
	0.758640	NaN	0.277082
	0.758640	NaN	0.277082
	0.758640	NaN	0.277082
	0.758640	NaN	0.277082
	0.758640	NaN	0.277082
	0.758640	NaN	0.277082
	0.758640	NaN	0.277082
	0.758640	NaN	0.277082
	0.758640	NaN	0.277082
	0.758640	NaN	0.277082
	0.758640	NaN	0.277082
	0.758640	NaN	0.277082
	0.758640	NaN	0.277082
	0.758640	NaN	0.277082
	0.758640	NaN	0.277082
	0.758640	NaN	0.277082
	0.758640	NaN	0.038316
	0.806749	NaN	0.038316
	0.758640	NaN	0.277082
	0.758640	NaN	0.277082
	0.758640	NaN	0.277082
	0.758640	NaN	0.277082
	0.758640	NaN	0.038316
	0.758640	NaN	0.038316
	0.758640	NaN	0.277082
	0.758640	NaN	0.038316
	0.758640	NaN	0.038316
	0.806749	NaN	0.038316
	0.758640	NaN	0.038316
	0.758640	NaN	0.038316
	0.758640	NaN	0.038316
	0.758640	NaN	0.038316
	0.758640	NaN	0.038316
	0.758640	NaN	0.038316
	0.758640	NaN	0.038316
	0.758640	NaN	0.038316
	0.806749	NaN	0.038316
	0.758640	NaN	0.038316
	0.758640	NaN	0.038316
	0.806749	NaN	0.038316
	0.806749	NaN	0.038316
	0.758640	NaN	0.038316
	0.806749	NaN	0.277084
	0.806749	NaN	0.038316
	0.806749	NaN	NaN
	0.806749	NaN	0.038316
	0.758640	NaN	0.038316
	0.806749	NaN	0.038316
	0.758640	NaN	0.038316
	0.758640	NaN	0.038316
	0.806749	NaN	0.277084
	0.806749	NaN	0.277084
	0.758642	NaN	0.277084
	0.806749	NaN	0.277084
	0.806749	NaN	0.038316
	0.806749	NaN	0.277084
	0.806749	NaN	0.277084
	0.806749	NaN	0.277084
	0.758642	NaN	0.277084
	0.806749	NaN	0.277084
	0.806749	NaN	0.277084
	0.806749	NaN	0.277084
